; C:\Data\Jenni\Praktikum B2.2\11-12-18-Jörg\Probe3.raw(Diffrac Plus V1.01 file) converted by XCH V1.0
_FILEVERSION=2
_SAMPLE='Probe3'
_SITE='II. Physikalisches Institut'
_ATTACHMENTS_CODE=0
_GONIOMETER_RADIUS=200.500000
_FIXED_DIVSLIT=2.000000
_FIXED_SAMPLESLIT=1.000000
_FIXED_DETSLIT=0.200000
_MONOCHROMATOR=0
; None
_THIN_FILM='N'
_BETA_FILTER='Y'
_FIXED_ANTISLIT=2.000000
_ANALYZER_CODE=0
; None
_DATEMEASURED='13-Dec-2018 14:04:22'
_WL_UNIT='A'
_WL1=1.540590
_WL2=1.544430
_WL3=1.392230
_WLRATIO=0.520000
_ANODE='Cu'
; (Data for Range number 1)
_DRIVE='COUPLED'
_STEPTIME=5.000000
_STEPSIZE=0.020000
_STEPMODE='C'
_START=20.000000
_THETA=10.000000
_2THETA=20.000000
_KHI=0.000000
_PHI=0.000000
_X=0.000000
_Y=0.000000
_Z=0.000000
_DIVERGENCE=0.000000
_ANTISCATTER=0.000000
_DETECTOR=1
; S.C.
_HV=1000.000000
_GAIN=80.000000
_LLD=0.550000
_ULD=1.310000
_DETECTORSLIT='unkn'
_AUX1=0.000000
_AUX2=0.000000
_AUX3=0.000000
_TIMESTARTED=12.000000
_ROTATION_SPEED=120.000000
_TEMP_RATE=-1.000000
_TEMP_DELAY=-1.000000
_KV=40
_MA=40
_RANGE_WL=1.540590
_3DPLANE=0
_2THETACOUNTS
  20.0000       402
  20.0200       408
  20.0400       401
  20.0600       388
  20.0800       387
  20.1000       424
  20.1200       395
  20.1400       415
  20.1600       358
  20.1800       355
  20.2000       364
  20.2200       371
  20.2400       399
  20.2600       385
  20.2800       407
  20.3000       370
  20.3200       443
  20.3400       383
  20.3600       422
  20.3800       392
  20.4000       406
  20.4200       400
  20.4400       401
  20.4600       385
  20.4800       407
  20.5000       395
  20.5200       397
  20.5400       382
  20.5600       426
  20.5800       399
  20.6000       402
  20.6200       416
  20.6400       389
  20.6600       400
  20.6800       394
  20.7000       433
  20.7200       443
  20.7400       412
  20.7600       399
  20.7800       401
  20.8000       415
  20.8200       397
  20.8400       390
  20.8600       397
  20.8800       380
  20.9000       422
  20.9200       405
  20.9400       401
  20.9600       407
  20.9800       446
  21.0000       418
  21.0200       402
  21.0400       383
  21.0600       410
  21.0800       391
  21.1000       388
  21.1200       409
  21.1400       431
  21.1600       419
  21.1800       429
  21.2000       399
  21.2200       461
  21.2400       410
  21.2600       424
  21.2800       429
  21.3000       420
  21.3200       442
  21.3400       460
  21.3600       450
  21.3800       409
  21.4000       452
  21.4200       369
  21.4400       422
  21.4600       409
  21.4800       409
  21.5000       427
  21.5200       411
  21.5400       413
  21.5600       424
  21.5800       421
  21.6000       434
  21.6200       435
  21.6400       418
  21.6600       412
  21.6800       423
  21.7000       455
  21.7200       445
  21.7400       450
  21.7600       451
  21.7800       384
  21.8000       421
  21.8200       436
  21.8400       450
  21.8600       405
  21.8800       429
  21.9000       455
  21.9200       402
  21.9400       421
  21.9600       388
  21.9800       440
  22.0000       432
  22.0200       455
  22.0400       410
  22.0600       432
  22.0800       425
  22.1000       441
  22.1200       443
  22.1400       431
  22.1600       449
  22.1800       430
  22.2000       425
  22.2200       443
  22.2400       459
  22.2600       421
  22.2800       426
  22.3000       416
  22.3200       414
  22.3400       435
  22.3600       495
  22.3800       432
  22.4000       463
  22.4200       456
  22.4400       442
  22.4600       464
  22.4800       443
  22.5000       463
  22.5200       421
  22.5400       461
  22.5600       446
  22.5800       408
  22.6000       420
  22.6200       425
  22.6400       430
  22.6600       483
  22.6800       426
  22.7000       448
  22.7200       417
  22.7400       440
  22.7600       446
  22.7800       436
  22.8000       416
  22.8200       456
  22.8400       492
  22.8600       442
  22.8800       461
  22.9000       452
  22.9200       462
  22.9400       469
  22.9600       460
  22.9800       450
  23.0000       495
  23.0200       488
  23.0400       459
  23.0600       468
  23.0800       458
  23.1000       415
  23.1200       458
  23.1400       447
  23.1600       468
  23.1800       455
  23.2000       463
  23.2200       481
  23.2400       450
  23.2600       475
  23.2800       481
  23.3000       491
  23.3200       471
  23.3400       473
  23.3600       497
  23.3800       500
  23.4000       539
  23.4200       520
  23.4400       551
  23.4600       474
  23.4800       488
  23.5000       535
  23.5200       536
  23.5400       460
  23.5600       496
  23.5800       520
  23.6000       478
  23.6200       524
  23.6400       518
  23.6600       498
  23.6800       517
  23.7000       499
  23.7200       512
  23.7400       539
  23.7600       507
  23.7800       488
  23.8000       487
  23.8200       536
  23.8400       535
  23.8600       471
  23.8800       519
  23.9000       515
  23.9200       481
  23.9400       547
  23.9600       512
  23.9800       499
  24.0000       501
  24.0200       534
  24.0400       505
  24.0600       483
  24.0800       513
  24.1000       505
  24.1200       508
  24.1400       462
  24.1600       509
  24.1800       503
  24.2000       515
  24.2200       534
  24.2400       476
  24.2600       493
  24.2800       483
  24.3000       508
  24.3200       478
  24.3400       500
  24.3600       485
  24.3800       483
  24.4000       494
  24.4200       487
  24.4400       491
  24.4600       492
  24.4800       485
  24.5000       468
  24.5200       465
  24.5400       446
  24.5600       490
  24.5800       455
  24.6000       499
  24.6200       480
  24.6400       476
  24.6600       446
  24.6800       498
  24.7000       503
  24.7200       480
  24.7400       496
  24.7600       467
  24.7800       476
  24.8000       482
  24.8200       474
  24.8400       488
  24.8600       463
  24.8800       475
  24.9000       468
  24.9200       448
  24.9400       472
  24.9600       467
  24.9800       478
  25.0000       494
  25.0200       480
  25.0400       471
  25.0600       487
  25.0800       508
  25.1000       466
  25.1200       478
  25.1400       507
  25.1600       441
  25.1800       460
  25.2000       480
  25.2200       469
  25.2400       438
  25.2600       489
  25.2800       482
  25.3000       435
  25.3200       463
  25.3400       492
  25.3600       440
  25.3800       459
  25.4000       465
  25.4200       466
  25.4400       470
  25.4600       480
  25.4800       498
  25.5000       479
  25.5200       499
  25.5400       469
  25.5600       543
  25.5800       492
  25.6000       443
  25.6200       473
  25.6400       496
  25.6600       462
  25.6800       444
  25.7000       477
  25.7200       460
  25.7400       452
  25.7600       476
  25.7800       456
  25.8000       502
  25.8200       505
  25.8400       421
  25.8600       473
  25.8800       454
  25.9000       503
  25.9200       467
  25.9400       480
  25.9600       483
  25.9800       439
  26.0000       463
  26.0200       495
  26.0400       512
  26.0600       460
  26.0800       477
  26.1000       481
  26.1200       457
  26.1400       461
  26.1600       475
  26.1800       451
  26.2000       458
  26.2200       461
  26.2400       471
  26.2600       446
  26.2800       458
  26.3000       514
  26.3200       496
  26.3400       508
  26.3600       494
  26.3800       517
  26.4000       424
  26.4200       475
  26.4400       474
  26.4600       466
  26.4800       499
  26.5000       448
  26.5200       441
  26.5400       475
  26.5600       475
  26.5800       424
  26.6000       478
  26.6200       448
  26.6400       483
  26.6600       528
  26.6800       490
  26.7000       509
  26.7200       470
  26.7400       451
  26.7600       476
  26.7800       479
  26.8000       437
  26.8200       447
  26.8400       473
  26.8600       499
  26.8800       452
  26.9000       462
  26.9200       495
  26.9400       481
  26.9600       538
  26.9800       467
  27.0000       483
  27.0200       475
  27.0400       491
  27.0600       498
  27.0800       514
  27.1000       519
  27.1200       511
  27.1400       480
  27.1600       521
  27.1800       463
  27.2000       435
  27.2200       487
  27.2400       517
  27.2600       505
  27.2800       454
  27.3000       488
  27.3200       465
  27.3400       494
  27.3600       498
  27.3800       484
  27.4000       446
  27.4200       497
  27.4400       481
  27.4600       500
  27.4800       463
  27.5000       496
  27.5200       495
  27.5400       463
  27.5600       454
  27.5800       507
  27.6000       505
  27.6200       487
  27.6400       521
  27.6600       493
  27.6800       444
  27.7000       494
  27.7200       481
  27.7400       492
  27.7600       526
  27.7800       501
  27.8000       505
  27.8200       488
  27.8400       495
  27.8600       495
  27.8800       482
  27.9000       459
  27.9200       491
  27.9400       506
  27.9600       479
  27.9800       475
  28.0000       499
  28.0200       490
  28.0400       455
  28.0600       474
  28.0800       485
  28.1000       501
  28.1200       491
  28.1400       500
  28.1600       468
  28.1800       519
  28.2000       486
  28.2200       454
  28.2400       511
  28.2600       475
  28.2800       497
  28.3000       484
  28.3200       516
  28.3400       464
  28.3600       456
  28.3800       460
  28.4000       479
  28.4200       501
  28.4400       522
  28.4600       480
  28.4800       510
  28.5000       505
  28.5200       487
  28.5400       468
  28.5600       494
  28.5800       508
  28.6000       496
  28.6200       504
  28.6400       459
  28.6600       523
  28.6800       496
  28.7000       495
  28.7200       490
  28.7400       514
  28.7600       510
  28.7800       540
  28.8000       478
  28.8200       500
  28.8400       517
  28.8600       511
  28.8800       493
  28.9000       534
  28.9200       488
  28.9400       482
  28.9600       471
  28.9800       477
  29.0000       479
  29.0200       496
  29.0400       511
  29.0600       455
  29.0800       517
  29.1000       482
  29.1200       476
  29.1400       494
  29.1600       497
  29.1800       473
  29.2000       421
  29.2200       514
  29.2400       476
  29.2600       506
  29.2800       467
  29.3000       455
  29.3200       504
  29.3400       499
  29.3600       459
  29.3800       506
  29.4000       491
  29.4200       486
  29.4400       490
  29.4600       468
  29.4800       504
  29.5000       527
  29.5200       480
  29.5400       504
  29.5600       517
  29.5800       524
  29.6000       524
  29.6200       490
  29.6400       462
  29.6600       471
  29.6800       532
  29.7000       485
  29.7200       507
  29.7400       469
  29.7600       521
  29.7800       529
  29.8000       525
  29.8200       482
  29.8400       511
  29.8600       524
  29.8800       464
  29.9000       504
  29.9200       475
  29.9400       537
  29.9600       493
  29.9800       491
  30.0000       501
  30.0200       462
  30.0400       494
  30.0600       502
  30.0800       501
  30.1000       515
  30.1200       508
  30.1400       506
  30.1600       523
  30.1800       522
  30.2000       505
  30.2200       549
  30.2400       509
  30.2600       525
  30.2800       455
  30.3000       491
  30.3200       521
  30.3400       487
  30.3600       460
  30.3800       485
  30.4000       543
  30.4200       510
  30.4400       533
  30.4600       542
  30.4800       506
  30.5000       517
  30.5200       516
  30.5400       517
  30.5600       500
  30.5800       548
  30.6000       509
  30.6200       483
  30.6400       504
  30.6600       524
  30.6800       504
  30.7000       483
  30.7200       496
  30.7400       521
  30.7600       522
  30.7800       481
  30.8000       470
  30.8200       533
  30.8400       458
  30.8600       503
  30.8800       514
  30.9000       512
  30.9200       512
  30.9400       511
  30.9600       517
  30.9800       488
  31.0000       509
  31.0200       529
  31.0400       484
  31.0600       465
  31.0800       551
  31.1000       497
  31.1200       503
  31.1400       513
  31.1600       498
  31.1800       527
  31.2000       496
  31.2200       518
  31.2400       490
  31.2600       508
  31.2800       518
  31.3000       469
  31.3200       489
  31.3400       463
  31.3600       487
  31.3800       499
  31.4000       505
  31.4200       533
  31.4400       472
  31.4600       549
  31.4800       515
  31.5000       535
  31.5200       532
  31.5400       529
  31.5600       496
  31.5800       470
  31.6000       514
  31.6200       456
  31.6400       539
  31.6600       516
  31.6800       546
  31.7000       537
  31.7200       532
  31.7400       507
  31.7600       539
  31.7800       535
  31.8000       540
  31.8200       518
  31.8400       522
  31.8600       488
  31.8800       525
  31.9000       541
  31.9200       482
  31.9400       509
  31.9600       470
  31.9800       521
  32.0000       564
  32.0200       500
  32.0400       496
  32.0600       529
  32.0800       545
  32.1000       516
  32.1200       531
  32.1400       490
  32.1600       517
  32.1800       533
  32.2000       510
  32.2200       489
  32.2400       530
  32.2600       529
  32.2800       542
  32.3000       558
  32.3200       515
  32.3400       517
  32.3600       562
  32.3800       547
  32.4000       543
  32.4200       516
  32.4400       497
  32.4600       495
  32.4800       539
  32.5000       534
  32.5200       470
  32.5400       528
  32.5600       538
  32.5800       517
  32.6000       520
  32.6200       531
  32.6400       521
  32.6600       495
  32.6800       516
  32.7000       507
  32.7200       548
  32.7400       516
  32.7600       509
  32.7800       562
  32.8000       538
  32.8200       528
  32.8400       510
  32.8600       505
  32.8800       540
  32.9000       528
  32.9200       505
  32.9400       520
  32.9600       516
  32.9800       549
  33.0000       514
  33.0200       487
  33.0400       561
  33.0600       506
  33.0800       545
  33.1000       561
  33.1200       551
  33.1400       573
  33.1600       542
  33.1800       531
  33.2000       525
  33.2200       556
  33.2400       597
  33.2600       558
  33.2800       526
  33.3000       554
  33.3200       526
  33.3400       582
  33.3600       562
  33.3800       586
  33.4000       579
  33.4200       565
  33.4400       589
  33.4600       584
  33.4800       551
  33.5000       570
  33.5200       586
  33.5400       569
  33.5600       625
  33.5800       617
  33.6000       612
  33.6200       627
  33.6400       659
  33.6600       601
  33.6800       608
  33.7000       619
  33.7200       593
  33.7400       605
  33.7600       609
  33.7800       585
  33.8000       600
  33.8200       621
  33.8400       621
  33.8600       614
  33.8800       591
  33.9000       636
  33.9200       578
  33.9400       613
  33.9600       551
  33.9800       580
  34.0000       599
  34.0200       530
  34.0400       561
  34.0600       562
  34.0800       582
  34.1000       553
  34.1200       574
  34.1400       567
  34.1600       572
  34.1800       512
  34.2000       532
  34.2200       565
  34.2400       528
  34.2600       564
  34.2800       563
  34.3000       545
  34.3200       499
  34.3400       525
  34.3600       535
  34.3800       522
  34.4000       515
  34.4200       459
  34.4400       507
  34.4600       527
  34.4800       512
  34.5000       549
  34.5200       498
  34.5400       541
  34.5600       505
  34.5800       550
  34.6000       499
  34.6200       506
  34.6400       526
  34.6600       477
  34.6800       516
  34.7000       507
  34.7200       497
  34.7400       517
  34.7600       483
  34.7800       529
  34.8000       489
  34.8200       530
  34.8400       471
  34.8600       487
  34.8800       493
  34.9000       505
  34.9200       484
  34.9400       504
  34.9600       478
  34.9800       549
  35.0000       526
  35.0200       475
  35.0400       518
  35.0600       535
  35.0800       528
  35.1000       478
  35.1200       481
  35.1400       523
  35.1600       467
  35.1800       519
  35.2000       509
  35.2200       498
  35.2400       460
  35.2600       548
  35.2800       468
  35.3000       537
  35.3200       503
  35.3400       507
  35.3600       520
  35.3800       527
  35.4000       525
  35.4200       528
  35.4400       455
  35.4600       541
  35.4800       542
  35.5000       513
  35.5200       571
  35.5400       509
  35.5600       525
  35.5800       501
  35.6000       495
  35.6200       527
  35.6400       502
  35.6600       497
  35.6800       479
  35.7000       470
  35.7200       495
  35.7400       493
  35.7600       456
  35.7800       489
  35.8000       465
  35.8200       511
  35.8400       521
  35.8600       521
  35.8800       502
  35.9000       496
  35.9200       494
  35.9400       514
  35.9600       521
  35.9800       549
  36.0000       535
  36.0200       540
  36.0400       505
  36.0600       562
  36.0800       540
  36.1000       512
  36.1200       522
  36.1400       528
  36.1600       531
  36.1800       503
  36.2000       549
  36.2200       523
  36.2400       477
  36.2600       545
  36.2800       506
  36.3000       558
  36.3200       499
  36.3400       541
  36.3600       542
  36.3800       540
  36.4000       536
  36.4200       470
  36.4400       546
  36.4600       534
  36.4800       547
  36.5000       517
  36.5200       532
  36.5400       523
  36.5600       523
  36.5800       486
  36.6000       556
  36.6200       538
  36.6400       587
  36.6600       536
  36.6800       549
  36.7000       496
  36.7200       515
  36.7400       487
  36.7600       529
  36.7800       519
  36.8000       520
  36.8200       561
  36.8400       554
  36.8600       524
  36.8800       551
  36.9000       566
  36.9200       552
  36.9400       444
  36.9600       513
  36.9800       513
  37.0000       534
  37.0200       568
  37.0400       554
  37.0600       525
  37.0800       506
  37.1000       543
  37.1200       529
  37.1400       546
  37.1600       548
  37.1800       571
  37.2000       531
  37.2200       522
  37.2400       576
  37.2600       566
  37.2800       553
  37.3000       529
  37.3200       566
  37.3400       527
  37.3600       557
  37.3800       535
  37.4000       536
  37.4200       526
  37.4400       519
  37.4600       565
  37.4800       530
  37.5000       522
  37.5200       530
  37.5400       533
  37.5600       527
  37.5800       511
  37.6000       522
  37.6200       541
  37.6400       518
  37.6600       527
  37.6800       505
  37.7000       569
  37.7200       551
  37.7400       560
  37.7600       550
  37.7800       579
  37.8000       569
  37.8200       562
  37.8400       581
  37.8600       540
  37.8800       589
  37.9000       527
  37.9200       598
  37.9400       514
  37.9600       540
  37.9800       574
  38.0000       592
  38.0200       562
  38.0400       593
  38.0600       540
  38.0800       592
  38.1000       554
  38.1200       564
  38.1400       561
  38.1600       546
  38.1800       545
  38.2000       566
  38.2200       535
  38.2400       566
  38.2600       579
  38.2800       542
  38.3000       513
  38.3200       576
  38.3400       570
  38.3600       556
  38.3800       554
  38.4000       547
  38.4200       539
  38.4400       568
  38.4600       540
  38.4800       568
  38.5000       534
  38.5200       566
  38.5400       539
  38.5600       564
  38.5800       562
  38.6000       558
  38.6200       554
  38.6400       517
  38.6600       557
  38.6800       596
  38.7000       563
  38.7200       541
  38.7400       581
  38.7600       557
  38.7800       601
  38.8000       539
  38.8200       556
  38.8400       566
  38.8600       573
  38.8800       537
  38.9000       546
  38.9200       579
  38.9400       654
  38.9600       576
  38.9800       541
  39.0000       558
  39.0200       567
  39.0400       546
  39.0600       546
  39.0800       572
  39.1000       576
  39.1200       598
  39.1400       636
  39.1600       576
  39.1800       553
  39.2000       609
  39.2200       608
  39.2400       605
  39.2600       581
  39.2800       630
  39.3000       649
  39.3200       633
  39.3400       619
  39.3600       661
  39.3800       657
  39.4000       616
  39.4200       652
  39.4400       628
  39.4600       607
  39.4800       668
  39.5000       638
  39.5200       683
  39.5400       672
  39.5600       660
  39.5800       751
  39.6000       742
  39.6200       664
  39.6400       628
  39.6600       719
  39.6800       728
  39.7000       677
  39.7200       680
  39.7400       702
  39.7600       750
  39.7800       789
  39.8000       783
  39.8200       765
  39.8400       780
  39.8600       853
  39.8800       837
  39.9000       851
  39.9200       886
  39.9400       847
  39.9600       937
  39.9800       913
  40.0000       941
  40.0200       927
  40.0400      1012
  40.0600      1048
  40.0800      1051
  40.1000      1116
  40.1200      1180
  40.1400      1140
  40.1600      1193
  40.1800      1187
  40.2000      1305
  40.2200      1242
  40.2400      1290
  40.2600      1375
  40.2800      1414
  40.3000      1411
  40.3200      1465
  40.3400      1496
  40.3600      1597
  40.3800      1528
  40.4000      1604
  40.4200      1663
  40.4400      1665
  40.4600      1680
  40.4800      1771
  40.5000      1643
  40.5200      1802
  40.5400      1763
  40.5600      1756
  40.5800      1845
  40.6000      1824
  40.6200      1773
  40.6400      1904
  40.6600      1906
  40.6800      1925
  40.7000      1978
  40.7200      1976
  40.7400      2069
  40.7600      2045
  40.7800      2175
  40.8000      2178
  40.8200      2198
  40.8400      2215
  40.8600      2300
  40.8800      2297
  40.9000      2400
  40.9200      2342
  40.9400      2383
  40.9600      2459
  40.9800      2490
  41.0000      2424
  41.0200      2455
  41.0400      2556
  41.0600      2613
  41.0800      2519
  41.1000      2551
  41.1200      2577
  41.1400      2595
  41.1600      2519
  41.1800      2537
  41.2000      2410
  41.2200      2407
  41.2400      2360
  41.2600      2323
  41.2800      2205
  41.3000      2281
  41.3200      2187
  41.3400      2014
  41.3600      1978
  41.3800      1968
  41.4000      1866
  41.4200      1859
  41.4400      1750
  41.4600      1716
  41.4800      1607
  41.5000      1699
  41.5200      1585
  41.5400      1617
  41.5600      1571
  41.5800      1556
  41.6000      1534
  41.6200      1578
  41.6400      1494
  41.6600      1483
  41.6800      1476
  41.7000      1506
  41.7200      1336
  41.7400      1355
  41.7600      1255
  41.7800      1146
  41.8000      1194
  41.8200      1133
  41.8400      1059
  41.8600      1022
  41.8800       892
  41.9000       926
  41.9200       873
  41.9400       759
  41.9600       750
  41.9800       692
  42.0000       705
  42.0200       688
  42.0400       677
  42.0600       630
  42.0800       605
  42.1000       642
  42.1200       612
  42.1400       613
  42.1600       603
  42.1800       613
  42.2000       609
  42.2200       617
  42.2400       567
  42.2600       580
  42.2800       573
  42.3000       619
  42.3200       649
  42.3400       601
  42.3600       608
  42.3800       559
  42.4000       581
  42.4200       573
  42.4400       580
  42.4600       582
  42.4800       539
  42.5000       603
  42.5200       593
  42.5400       623
  42.5600       566
  42.5800       589
  42.6000       564
  42.6200       577
  42.6400       592
  42.6600       564
  42.6800       578
  42.7000       579
  42.7200       550
  42.7400       609
  42.7600       585
  42.7800       579
  42.8000       561
  42.8200       551
  42.8400       608
  42.8600       513
  42.8800       566
  42.9000       572
  42.9200       541
  42.9400       574
  42.9600       581
  42.9800       528
  43.0000       528
  43.0200       561
  43.0400       552
  43.0600       582
  43.0800       565
  43.1000       576
  43.1200       559
  43.1400       534
  43.1600       571
  43.1800       568
  43.2000       601
  43.2200       578
  43.2400       555
  43.2600       594
  43.2800       574
  43.3000       571
  43.3200       583
  43.3400       581
  43.3600       589
  43.3800       577
  43.4000       529
  43.4200       551
  43.4400       599
  43.4600       548
  43.4800       542
  43.5000       591
  43.5200       581
  43.5400       557
  43.5600       540
  43.5800       569
  43.6000       599
  43.6200       551
  43.6400       551
  43.6600       563
  43.6800       598
  43.7000       589
  43.7200       547
  43.7400       543
  43.7600       618
  43.7800       546
  43.8000       577
  43.8200       588
  43.8400       519
  43.8600       546
  43.8800       520
  43.9000       561
  43.9200       551
  43.9400       556
  43.9600       557
  43.9800       557
  44.0000       612
  44.0200       531
  44.0400       557
  44.0600       569
  44.0800       530
  44.1000       569
  44.1200       573
  44.1400       552
  44.1600       512
  44.1800       597
  44.2000       544
  44.2200       534
  44.2400       582
  44.2600       544
  44.2800       583
  44.3000       580
  44.3200       579
  44.3400       518
  44.3600       540
  44.3800       578
  44.4000       571
  44.4200       568
  44.4400       581
  44.4600       543
  44.4800       612
  44.5000       568
  44.5200       570
  44.5400       617
  44.5600       569
  44.5800       562
  44.6000       561
  44.6200       540
  44.6400       581
  44.6600       550
  44.6800       570
  44.7000       589
  44.7200       562
  44.7400       553
  44.7600       574
  44.7800       565
  44.8000       602
  44.8200       574
  44.8400       577
  44.8600       559
  44.8800       550
  44.9000       561
  44.9200       573
  44.9400       539
  44.9600       537
  44.9800       576
  45.0000       561
  45.0200       533
  45.0400       564
  45.0600       601
  45.0800       539
  45.1000       557
  45.1200       572
  45.1400       583
  45.1600       576
  45.1800       588
  45.2000       591
  45.2200       552
  45.2400       570
  45.2600       579
  45.2800       622
  45.3000       599
  45.3200       582
  45.3400       600
  45.3600       601
  45.3800       611
  45.4000       618
  45.4200       651
  45.4400       645
  45.4600       616
  45.4800       660
  45.5000       642
  45.5200       612
  45.5400       593
  45.5600       644
  45.5800       642
  45.6000       637
  45.6200       651
  45.6400       617
  45.6600       647
  45.6800       647
  45.7000       600
  45.7200       670
  45.7400       674
  45.7600       676
  45.7800       686
  45.8000       727
  45.8200       659
  45.8400       667
  45.8600       693
  45.8800       717
  45.9000       706
  45.9200       676
  45.9400       639
  45.9600       717
  45.9800       695
  46.0000       717
  46.0200       664
  46.0400       698
  46.0600       630
  46.0800       690
  46.1000       734
  46.1200       698
  46.1400       692
  46.1600       742
  46.1800       740
  46.2000       713
  46.2200       741
  46.2400       695
  46.2600       706
  46.2800       739
  46.3000       731
  46.3200       709
  46.3400       749
  46.3600       741
  46.3800       790
  46.4000       719
  46.4200       750
  46.4400       728
  46.4600       734
  46.4800       757
  46.5000       752
  46.5200       779
  46.5400       728
  46.5600       725
  46.5800       804
  46.6000       753
  46.6200       751
  46.6400       833
  46.6600       814
  46.6800       785
  46.7000       810
  46.7200       782
  46.7400       756
  46.7600       795
  46.7800       817
  46.8000       815
  46.8200       848
  46.8400       837
  46.8600       815
  46.8800       857
  46.9000       838
  46.9200       803
  46.9400       830
  46.9600       786
  46.9800       807
  47.0000       886
  47.0200       824
  47.0400       878
  47.0600       902
  47.0800       849
  47.1000       905
  47.1200       890
  47.1400       951
  47.1600       874
  47.1800       934
  47.2000       944
  47.2200       969
  47.2400       951
  47.2600       918
  47.2800      1029
  47.3000      1048
  47.3200      1035
  47.3400      1043
  47.3600      1085
  47.3800      1037
  47.4000      1093
  47.4200      1119
  47.4400      1216
  47.4600      1139
  47.4800      1153
  47.5000      1200
  47.5200      1185
  47.5400      1271
  47.5600      1274
  47.5800      1242
  47.6000      1280
  47.6200      1286
  47.6400      1305
  47.6600      1351
  47.6800      1370
  47.7000      1347
  47.7200      1347
  47.7400      1426
  47.7600      1481
  47.7800      1369
  47.8000      1420
  47.8200      1437
  47.8400      1456
  47.8600      1557
  47.8800      1491
  47.9000      1450
  47.9200      1496
  47.9400      1416
  47.9600      1490
  47.9800      1525
  48.0000      1466
  48.0200      1457
  48.0400      1511
  48.0600      1375
  48.0800      1398
  48.1000      1428
  48.1200      1378
  48.1400      1371
  48.1600      1374
  48.1800      1388
  48.2000      1301
  48.2200      1319
  48.2400      1269
  48.2600      1344
  48.2800      1316
  48.3000      1305
  48.3200      1306
  48.3400      1288
  48.3600      1366
  48.3800      1331
  48.4000      1424
  48.4200      1433
  48.4400      1411
  48.4600      1364
  48.4800      1386
  48.5000      1376
  48.5200      1338
  48.5400      1320
  48.5600      1237
  48.5800      1196
  48.6000      1173
  48.6200      1170
  48.6400      1099
  48.6600      1076
  48.6800       972
  48.7000       974
  48.7200       905
  48.7400       871
  48.7600       896
  48.7800       835
  48.8000       785
  48.8200       815
  48.8400       744
  48.8600       779
  48.8800       732
  48.9000       736
  48.9200       690
  48.9400       733
  48.9600       647
  48.9800       676
  49.0000       637
  49.0200       632
  49.0400       641
  49.0600       617
  49.0800       624
  49.1000       635
  49.1200       631
  49.1400       634
  49.1600       661
  49.1800       619
  49.2000       605
  49.2200       630
  49.2400       602
  49.2600       558
  49.2800       624
  49.3000       633
  49.3200       604
  49.3400       630
  49.3600       590
  49.3800       620
  49.4000       539
  49.4200       614
  49.4400       651
  49.4600       618
  49.4800       564
  49.5000       570
  49.5200       629
  49.5400       594
  49.5600       596
  49.5800       619
  49.6000       606
  49.6200       596
  49.6400       563
  49.6600       569
  49.6800       625
  49.7000       614
  49.7200       586
  49.7400       632
  49.7600       619
  49.7800       617
  49.8000       544
  49.8200       570
  49.8400       583
  49.8600       581
  49.8800       569
  49.9000       579
  49.9200       598
  49.9400       605
  49.9600       582
  49.9800       567
  50.0000       537
  50.0200       598
  50.0400       502
  50.0600       583
  50.0800       560
  50.1000       587
  50.1200       600
  50.1400       574
  50.1600       557
  50.1800       558
  50.2000       499
  50.2200       566
  50.2400       596
  50.2600       535
  50.2800       543
  50.3000       545
  50.3200       546
  50.3400       564
  50.3600       543
  50.3800       575
  50.4000       563
  50.4200       592
  50.4400       551
  50.4600       523
  50.4800       571
  50.5000       585
  50.5200       530
  50.5400       565
  50.5600       541
  50.5800       507
  50.6000       588
  50.6200       528
  50.6400       549
  50.6600       602
  50.6800       560
  50.7000       556
  50.7200       542
  50.7400       549
  50.7600       519
  50.7800       558
  50.8000       512
  50.8200       552
  50.8400       518
  50.8600       512
  50.8800       570
  50.9000       586
  50.9200       504
  50.9400       542
  50.9600       519
  50.9800       521
  51.0000       539
  51.0200       538
  51.0400       536
  51.0600       557
  51.0800       536
  51.1000       538
  51.1200       579
  51.1400       541
  51.1600       562
  51.1800       512
  51.2000       569
  51.2200       533
  51.2400       579
  51.2600       566
  51.2800       573
  51.3000       517
  51.3200       559
  51.3400       501
  51.3600       514
  51.3800       551
  51.4000       574
  51.4200       564
  51.4400       508
  51.4600       541
  51.4800       514
  51.5000       572
  51.5200       586
  51.5400       537
  51.5600       568
  51.5800       505
  51.6000       574
  51.6200       550
  51.6400       555
  51.6600       587
  51.6800       566
  51.7000       509
  51.7200       532
  51.7400       557
  51.7600       545
  51.7800       535
  51.8000       553
  51.8200       546
  51.8400       532
  51.8600       579
  51.8800       559
  51.9000       564
  51.9200       527
  51.9400       540
  51.9600       533
  51.9800       580
  52.0000       549
  52.0200       580
  52.0400       578
  52.0600       545
  52.0800       558
  52.1000       601
  52.1200       543
  52.1400       535
  52.1600       544
  52.1800       593
  52.2000       545
  52.2200       566
  52.2400       527
  52.2600       557
  52.2800       582
  52.3000       553
  52.3200       514
  52.3400       513
  52.3600       522
  52.3800       546
  52.4000       570
  52.4200       568
  52.4400       554
  52.4600       580
  52.4800       529
  52.5000       551
  52.5200       537
  52.5400       560
  52.5600       593
  52.5800       533
  52.6000       563
  52.6200       555
  52.6400       552
  52.6600       520
  52.6800       538
  52.7000       544
  52.7200       563
  52.7400       578
  52.7600       561
  52.7800       567
  52.8000       560
  52.8200       576
  52.8400       571
  52.8600       571
  52.8800       559
  52.9000       606
  52.9200       593
  52.9400       574
  52.9600       543
  52.9800       531
  53.0000       538
  53.0200       533
  53.0400       626
  53.0600       544
  53.0800       537
  53.1000       552
  53.1200       571
  53.1400       566
  53.1600       585
  53.1800       560
  53.2000       566
  53.2200       573
  53.2400       604
  53.2600       533
  53.2800       574
  53.3000       506
  53.3200       586
  53.3400       545
  53.3600       569
  53.3800       563
  53.4000       593
  53.4200       543
  53.4400       572
  53.4600       549
  53.4800       595
  53.5000       591
  53.5200       556
  53.5400       557
  53.5600       560
  53.5800       541
  53.6000       556
  53.6200       611
  53.6400       577
  53.6600       586
  53.6800       566
  53.7000       579
  53.7200       490
  53.7400       598
  53.7600       580
  53.7800       583
  53.8000       556
  53.8200       575
  53.8400       543
  53.8600       570
  53.8800       565
  53.9000       562
  53.9200       587
  53.9400       580
  53.9600       561
  53.9800       542
  54.0000       574
  54.0200       570
  54.0400       568
  54.0600       584
  54.0800       590
  54.1000       605
  54.1200       608
  54.1400       615
  54.1600       591
  54.1800       576
  54.2000       576
  54.2200       604
  54.2400       587
  54.2600       602
  54.2800       564
  54.3000       598
  54.3200       598
  54.3400       590
  54.3600       624
  54.3800       616
  54.4000       647
  54.4200       613
  54.4400       607
  54.4600       625
  54.4800       601
  54.5000       671
  54.5200       645
  54.5400       630
  54.5600       644
  54.5800       638
  54.6000       645
  54.6200       660
  54.6400       633
  54.6600       613
  54.6800       646
  54.7000       653
  54.7200       665
  54.7400       653
  54.7600       630
  54.7800       629
  54.8000       653
  54.8200       641
  54.8400       624
  54.8600       637
  54.8800       636
  54.9000       610
  54.9200       609
  54.9400       643
  54.9600       641
  54.9800       590
  55.0000       594
  55.0200       573
  55.0400       586
  55.0600       608
  55.0800       566
  55.1000       601
  55.1200       609
  55.1400       614
  55.1600       573
  55.1800       585
  55.2000       604
  55.2200       578
  55.2400       592
  55.2600       572
  55.2800       522
  55.3000       565
  55.3200       571
  55.3400       556
  55.3600       522
  55.3800       538
  55.4000       544
  55.4200       547
  55.4400       544
  55.4600       594
  55.4800       584
  55.5000       570
  55.5200       581
  55.5400       556
  55.5600       516
  55.5800       543
  55.6000       564
  55.6200       531
  55.6400       549
  55.6600       538
  55.6800       600
  55.7000       541
  55.7200       559
  55.7400       540
  55.7600       506
  55.7800       560
  55.8000       554
  55.8200       534
  55.8400       568
  55.8600       571
  55.8800       546
  55.9000       553
  55.9200       532
  55.9400       549
  55.9600       582
  55.9800       590
  56.0000       589
  56.0200       567
  56.0400       540
  56.0600       572
  56.0800       553
  56.1000       527
  56.1200       567
  56.1400       594
  56.1600       558
  56.1800       492
  56.2000       560
  56.2200       609
  56.2400       542
  56.2600       522
  56.2800       520
  56.3000       559
  56.3200       552
  56.3400       572
  56.3600       561
  56.3800       546
  56.4000       533
  56.4200       563
  56.4400       588
  56.4600       543
  56.4800       636
  56.5000       553
  56.5200       602
  56.5400       574
  56.5600       589
  56.5800       539
  56.6000       538
  56.6200       508
  56.6400       533
  56.6600       546
  56.6800       526
  56.7000       549
  56.7200       537
  56.7400       566
  56.7600       508
  56.7800       559
  56.8000       565
  56.8200       588
  56.8400       536
  56.8600       554
  56.8800       554
  56.9000       501
  56.9200       526
  56.9400       608
  56.9600       549
  56.9800       583
  57.0000       554
  57.0200       550
  57.0400       574
  57.0600       533
  57.0800       535
  57.1000       550
  57.1200       589
  57.1400       545
  57.1600       526
  57.1800       548
  57.2000       546
  57.2200       523
  57.2400       534
  57.2600       601
  57.2800       556
  57.3000       583
  57.3200       562
  57.3400       604
  57.3600       573
  57.3800       527
  57.4000       566
  57.4200       529
  57.4400       540
  57.4600       543
  57.4800       561
  57.5000       529
  57.5200       575
  57.5400       565
  57.5600       584
  57.5800       583
  57.6000       554
  57.6200       530
  57.6400       507
  57.6600       571
  57.6800       545
  57.7000       523
  57.7200       560
  57.7400       562
  57.7600       564
  57.7800       517
  57.8000       543
  57.8200       536
  57.8400       572
  57.8600       595
  57.8800       564
  57.9000       544
  57.9200       556
  57.9400       610
  57.9600       564
  57.9800       550
  58.0000       566
  58.0200       529
  58.0400       551
  58.0600       586
  58.0800       615
  58.1000       521
  58.1200       531
  58.1400       556
  58.1600       543
  58.1800       564
  58.2000       558
  58.2200       593
  58.2400       548
  58.2600       548
  58.2800       541
  58.3000       553
  58.3200       544
  58.3400       571
  58.3600       562
  58.3800       537
  58.4000       565
  58.4200       599
  58.4400       596
  58.4600       553
  58.4800       544
  58.5000       548
  58.5200       560
  58.5400       568
  58.5600       595
  58.5800       598
  58.6000       558
  58.6200       544
  58.6400       635
  58.6600       553
  58.6800       529
  58.7000       563
  58.7200       605
  58.7400       568
  58.7600       566
  58.7800       557
  58.8000       571
  58.8200       558
  58.8400       572
  58.8600       589
  58.8800       577
  58.9000       574
  58.9200       575
  58.9400       579
  58.9600       589
  58.9800       609
  59.0000       559
  59.0200       568
  59.0400       561
  59.0600       571
  59.0800       588
  59.1000       603
  59.1200       554
  59.1400       550
  59.1600       584
  59.1800       580
  59.2000       542
  59.2200       557
  59.2400       560
  59.2600       549
  59.2800       605
  59.3000       561
  59.3200       548
  59.3400       578
  59.3600       594
  59.3800       544
  59.4000       553
  59.4200       560
  59.4400       646
  59.4600       577
  59.4800       626
  59.5000       593
  59.5200       561
  59.5400       547
  59.5600       535
  59.5800       574
  59.6000       618
  59.6200       565
  59.6400       543
  59.6600       569
  59.6800       628
  59.7000       637
  59.7200       574
  59.7400       583
  59.7600       580
  59.7800       602
  59.8000       637
  59.8200       636
  59.8400       561
  59.8600       600
  59.8800       574
  59.9000       550
  59.9200       598
  59.9400       604
  59.9600       633
  59.9800       639
  60.0000       586
  60.0200       589
  60.0400       588
  60.0600       573
  60.0800       562
  60.1000       605
  60.1200       610
  60.1400       623
  60.1600       595
  60.1800       627
  60.2000       640
  60.2200       631
  60.2400       627
  60.2600       627
  60.2800       602
  60.3000       647
  60.3200       639
  60.3400       645
  60.3600       619
  60.3800       619
  60.4000       608
  60.4200       618
  60.4400       612
  60.4600       626
  60.4800       646
  60.5000       585
  60.5200       648
  60.5400       581
  60.5600       684
  60.5800       631
  60.6000       627
  60.6200       601
  60.6400       624
  60.6600       588
  60.6800       611
  60.7000       565
  60.7200       622
  60.7400       627
  60.7600       591
  60.7800       579
  60.8000       567
  60.8200       580
  60.8400       568
  60.8600       559
  60.8800       585
  60.9000       578
  60.9200       613
  60.9400       611
  60.9600       586
  60.9800       580
  61.0000       588
  61.0200       556
  61.0400       557
  61.0600       550
  61.0800       554
  61.1000       560
  61.1200       594
  61.1400       564
  61.1600       563
  61.1800       559
  61.2000       575
  61.2200       612
  61.2400       560
  61.2600       605
  61.2800       560
  61.3000       603
  61.3200       588
  61.3400       596
  61.3600       582
  61.3800       592
  61.4000       586
  61.4200       589
  61.4400       559
  61.4600       560
  61.4800       543
  61.5000       567
  61.5200       586
  61.5400       537
  61.5600       567
  61.5800       596
  61.6000       556
  61.6200       569
  61.6400       537
  61.6600       532
  61.6800       571
  61.7000       596
  61.7200       550
  61.7400       587
  61.7600       606
  61.7800       612
  61.8000       579
  61.8200       539
  61.8400       604
  61.8600       564
  61.8800       562
  61.9000       585
  61.9200       605
  61.9400       580
  61.9600       578
  61.9800       606
  62.0000       604
  62.0200       586
  62.0400       548
  62.0600       570
  62.0800       588
  62.1000       539
  62.1200       598
  62.1400       591
  62.1600       574
  62.1800       594
  62.2000       566
  62.2200       596
  62.2400       572
  62.2600       577
  62.2800       597
  62.3000       580
  62.3200       551
  62.3400       561
  62.3600       560
  62.3800       605
  62.4000       538
  62.4200       582
  62.4400       580
  62.4600       596
  62.4800       596
  62.5000       565
  62.5200       543
  62.5400       552
  62.5600       556
  62.5800       545
  62.6000       565
  62.6200       538
  62.6400       585
  62.6600       605
  62.6800       579
  62.7000       576
  62.7200       547
  62.7400       554
  62.7600       563
  62.7800       595
  62.8000       583
  62.8200       569
  62.8400       560
  62.8600       562
  62.8800       618
  62.9000       606
  62.9200       543
  62.9400       539
  62.9600       584
  62.9800       541
  63.0000       639
  63.0200       580
  63.0400       595
  63.0600       589
  63.0800       548
  63.1000       544
  63.1200       566
  63.1400       554
  63.1600       549
  63.1800       534
  63.2000       582
  63.2200       515
  63.2400       542
  63.2600       571
  63.2800       597
  63.3000       559
  63.3200       587
  63.3400       561
  63.3600       611
  63.3800       564
  63.4000       581
  63.4200       565
  63.4400       570
  63.4600       573
  63.4800       532
  63.5000       569
  63.5200       580
  63.5400       560
  63.5600       526
  63.5800       576
  63.6000       563
  63.6200       516
  63.6400       573
  63.6600       551
  63.6800       584
  63.7000       582
  63.7200       594
  63.7400       545
  63.7600       588
  63.7800       567
  63.8000       517
  63.8200       583
  63.8400       554
  63.8600       577
  63.8800       582
  63.9000       587
  63.9200       551
  63.9400       573
  63.9600       616
  63.9800       566
  64.0000       583
  64.0200       593
  64.0400       584
  64.0600       576
  64.0800       635
  64.1000       524
  64.1200       592
  64.1400       570
  64.1600       628
  64.1800       539
  64.2000       601
  64.2200       558
  64.2400       610
  64.2600       559
  64.2800       587
  64.3000       581
  64.3200       575
  64.3400       595
  64.3600       612
  64.3800       616
  64.4000       595
  64.4200       574
  64.4400       572
  64.4600       525
  64.4800       574
  64.5000       549
  64.5200       569
  64.5400       581
  64.5600       559
  64.5800       599
  64.6000       587
  64.6200       546
  64.6400       595
  64.6600       551
  64.6800       571
  64.7000       564
  64.7200       573
  64.7400       567
  64.7600       564
  64.7800       554
  64.8000       580
  64.8200       516
  64.8400       508
  64.8600       548
  64.8800       542
  64.9000       549
  64.9200       536
  64.9400       561
  64.9600       573
  64.9800       601
  65.0000       589
  65.0200       600
  65.0400       579
  65.0600       579
  65.0800       576
  65.1000       532
  65.1200       551
  65.1400       547
  65.1600       602
  65.1800       546
  65.2000       550
  65.2200       521
  65.2400       565
  65.2600       541
  65.2800       560
  65.3000       553
  65.3200       562
  65.3400       561
  65.3600       564
  65.3800       557
  65.4000       591
  65.4200       555
  65.4400       583
  65.4600       597
  65.4800       561
  65.5000       588
  65.5200       544
  65.5400       561
  65.5600       557
  65.5800       575
  65.6000       547
  65.6200       584
  65.6400       534
  65.6600       540
  65.6800       564
  65.7000       573
  65.7200       576
  65.7400       584
  65.7600       582
  65.7800       615
  65.8000       564
  65.8200       566
  65.8400       597
  65.8600       567
  65.8800       546
  65.9000       589
  65.9200       574
  65.9400       581
  65.9600       600
  65.9800       588
  66.0000       573
  66.0200       580
  66.0400       545
  66.0600       577
  66.0800       530
  66.1000       565
  66.1200       570
  66.1400       544
  66.1600       594
  66.1800       591
  66.2000       576
  66.2200       596
  66.2400       589
  66.2600       539
  66.2800       593
  66.3000       528
  66.3200       563
  66.3400       567
  66.3600       602
  66.3800       610
  66.4000       549
  66.4200       576
  66.4400       595
  66.4600       572
  66.4800       601
  66.5000       580
  66.5200       625
  66.5400       579
  66.5600       616
  66.5800       606
  66.6000       620
  66.6200       557
  66.6400       597
  66.6600       625
  66.6800       602
  66.7000       574
  66.7200       643
  66.7400       624
  66.7600       563
  66.7800       592
  66.8000       588
  66.8200       597
  66.8400       587
  66.8600       616
  66.8800       617
  66.9000       642
  66.9200       562
  66.9400       600
  66.9600       619
  66.9800       597
  67.0000       602
  67.0200       574
  67.0400       598
  67.0600       575
  67.0800       637
  67.1000       631
  67.1200       629
  67.1400       661
  67.1600       646
  67.1800       576
  67.2000       641
  67.2200       623
  67.2400       602
  67.2600       631
  67.2800       599
  67.3000       602
  67.3200       654
  67.3400       597
  67.3600       616
  67.3800       589
  67.4000       588
  67.4200       623
  67.4400       624
  67.4600       649
  67.4800       594
  67.5000       623
  67.5200       612
  67.5400       608
  67.5600       592
  67.5800       551
  67.6000       652
  67.6200       605
  67.6400       633
  67.6600       602
  67.6800       693
  67.7000       595
  67.7200       614
  67.7400       633
  67.7600       613
  67.7800       657
  67.8000       609
  67.8200       635
  67.8400       628
  67.8600       598
  67.8800       591
  67.9000       598
  67.9200       630
  67.9400       630
  67.9600       642
  67.9800       638
  68.0000       639
  68.0200       656
  68.0400       673
  68.0600       590
  68.0800       618
  68.1000       620
  68.1200       590
  68.1400       596
  68.1600       642
  68.1800       613
  68.2000       573
  68.2200       671
  68.2400       629
  68.2600       580
  68.2800       652
  68.3000       638
  68.3200       621
  68.3400       646
  68.3600       668
  68.3800       625
  68.4000       619
  68.4200       631
  68.4400       644
  68.4600       651
  68.4800       679
  68.5000       611
  68.5200       674
  68.5400       665
  68.5600       648
  68.5800       631
  68.6000       663
  68.6200       676
  68.6400       649
  68.6600       612
  68.6800       619
  68.7000       654
  68.7200       619
  68.7400       651
  68.7600       682
  68.7800       654
  68.8000       671
  68.8200       627
  68.8400       657
  68.8600       669
  68.8800       665
  68.9000       681
  68.9200       624
  68.9400       635
  68.9600       693
  68.9800       640
  69.0000       659
  69.0200       672
  69.0400       701
  69.0600       686
  69.0800       677
  69.1000       705
  69.1200       644
  69.1400       678
  69.1600       656
  69.1800       677
  69.2000       654
  69.2200       681
  69.2400       644
  69.2600       713
  69.2800       721
  69.3000       736
  69.3200       720
  69.3400       753
  69.3600       715
  69.3800       716
  69.4000       710
  69.4200       722
  69.4400       722
  69.4600       727
  69.4800       711
  69.5000       759
  69.5200       789
  69.5400       765
  69.5600       762
  69.5800       716
  69.6000       780
  69.6200       792
  69.6400       822
  69.6600       799
  69.6800       786
  69.7000       871
  69.7200       834
  69.7400       793
  69.7600       800
  69.7800       872
  69.8000       849
  69.8200       839
  69.8400       875
  69.8600       887
  69.8800       862
  69.9000       904
  69.9200       878
  69.9400       836
  69.9600       852
  69.9800       845
  70.0000       908
  70.0200       902
  70.0400       889
  70.0600       948
  70.0800       894
  70.1000       872
  70.1200       907
  70.1400       892
  70.1600       907
  70.1800       911
  70.2000       916
  70.2200       927
  70.2400       924
  70.2600       871
  70.2800       889
  70.3000       941
  70.3200       907
  70.3400       874
  70.3600       891
  70.3800       950
  70.4000       846
  70.4200       868
  70.4400       863
  70.4600       848
  70.4800       900
  70.5000       836
  70.5200       839
  70.5400       832
  70.5600       846
  70.5800       784
  70.6000       810
  70.6200       833
  70.6400       844
  70.6600       793
  70.6800       821
  70.7000       825
  70.7200       832
  70.7400       852
  70.7600       802
  70.7800       826
  70.8000       878
  70.8200       917
  70.8400       876
  70.8600       917
  70.8800       826
  70.9000       954
  70.9200       906
  70.9400       909
  70.9600       953
  70.9800       986
  71.0000       927
  71.0200       992
  71.0400       987
  71.0600       990
  71.0800      1018
  71.1000       943
  71.1200       927
  71.1400       986
  71.1600       933
  71.1800       951
  71.2000       973
  71.2200       869
  71.2400       923
  71.2600       875
  71.2800       892
  71.3000       842
  71.3200       834
  71.3400       746
  71.3600       810
  71.3800       768
  71.4000       759
  71.4200       707
  71.4400       719
  71.4600       731
  71.4800       700
  71.5000       734
  71.5200       675
  71.5400       680
  71.5600       697
  71.5800       692
  71.6000       681
  71.6200       650
  71.6400       580
  71.6600       634
  71.6800       684
  71.7000       648
  71.7200       611
  71.7400       614
  71.7600       638
  71.7800       582
  71.8000       626
  71.8200       584
  71.8400       635
  71.8600       598
  71.8800       570
  71.9000       684
  71.9200       569
  71.9400       588
  71.9600       634
  71.9800       601
  72.0000       629
  72.0200       644
  72.0400       562
  72.0600       558
  72.0800       614
  72.1000       549
  72.1200       605
  72.1400       596
  72.1600       641
  72.1800       591
  72.2000       587
  72.2200       601
  72.2400       595
  72.2600       609
  72.2800       584
  72.3000       594
  72.3200       606
  72.3400       607
  72.3600       562
  72.3800       566
  72.4000       616
  72.4200       536
  72.4400       579
  72.4600       584
  72.4800       590
  72.5000       589
  72.5200       598
  72.5400       575
  72.5600       625
  72.5800       608
  72.6000       571
  72.6200       604
  72.6400       518
  72.6600       566
  72.6800       628
  72.7000       554
  72.7200       551
  72.7400       553
  72.7600       579
  72.7800       554
  72.8000       582
  72.8200       621
  72.8400       601
  72.8600       592
  72.8800       624
  72.9000       566
  72.9200       592
  72.9400       604
  72.9600       555
  72.9800       574
  73.0000       620
  73.0200       627
  73.0400       558
  73.0600       616
  73.0800       622
  73.1000       579
  73.1200       571
  73.1400       590
  73.1600       600
  73.1800       664
  73.2000       618
  73.2200       601
  73.2400       580
  73.2600       628
  73.2800       590
  73.3000       615
  73.3200       578
  73.3400       576
  73.3600       601
  73.3800       557
  73.4000       601
  73.4200       616
  73.4400       613
  73.4600       566
  73.4800       583
  73.5000       514
  73.5200       571
  73.5400       578
  73.5600       615
  73.5800       623
  73.6000       634
  73.6200       622
  73.6400       553
  73.6600       567
  73.6800       601
  73.7000       547
  73.7200       623
  73.7400       601
  73.7600       577
  73.7800       571
  73.8000       590
  73.8200       641
  73.8400       570
  73.8600       612
  73.8800       571
  73.9000       592
  73.9200       585
  73.9400       603
  73.9600       601
  73.9800       586
  74.0000       535
  74.0200       593
  74.0400       566
  74.0600       572
  74.0800       603
  74.1000       631
  74.1200       605
  74.1400       553
  74.1600       618
  74.1800       599
  74.2000       605
  74.2200       601
  74.2400       589
  74.2600       608
  74.2800       608
  74.3000       608
  74.3200       578
  74.3400       588
  74.3600       565
  74.3800       582
  74.4000       580
  74.4200       589
  74.4400       615
  74.4600       632
  74.4800       582
  74.5000       577
  74.5200       585
  74.5400       602
  74.5600       631
  74.5800       594
  74.6000       553
  74.6200       602
  74.6400       599
  74.6600       624
  74.6800       644
  74.7000       576
  74.7200       625
  74.7400       569
  74.7600       614
  74.7800       580
  74.8000       617
  74.8200       564
  74.8400       573
  74.8600       575
  74.8800       633
  74.9000       610
  74.9200       616
  74.9400       593
  74.9600       552
  74.9800       592
  75.0000       592
  75.0200       573
  75.0400       614
  75.0600       617
  75.0800       606
  75.1000       649
  75.1200       614
  75.1400       620
  75.1600       593
  75.1800       594
  75.2000       610
  75.2200       578
  75.2400       620
  75.2600       586
  75.2800       646
  75.3000       625
  75.3200       562
  75.3400       635
  75.3600       600
  75.3800       619
  75.4000       625
  75.4200       622
  75.4400       583
  75.4600       629
  75.4800       635
  75.5000       610
  75.5200       601
  75.5400       598
  75.5600       616
  75.5800       662
  75.6000       637
  75.6200       662
  75.6400       622
  75.6600       618
  75.6800       638
  75.7000       632
  75.7200       634
  75.7400       603
  75.7600       660
  75.7800       638
  75.8000       669
  75.8200       599
  75.8400       595
  75.8600       664
  75.8800       678
  75.9000       659
  75.9200       645
  75.9400       650
  75.9600       642
  75.9800       597
  76.0000       662
  76.0200       680
  76.0400       670
  76.0600       648
  76.0800       645
  76.1000       620
  76.1200       657
  76.1400       631
  76.1600       653
  76.1800       735
  76.2000       621
  76.2200       654
  76.2400       606
  76.2600       662
  76.2800       674
  76.3000       646
  76.3200       642
  76.3400       622
  76.3600       674
  76.3800       630
  76.4000       638
  76.4200       623
  76.4400       623
  76.4600       651
  76.4800       617
  76.5000       637
  76.5200       622
  76.5400       610
  76.5600       614
  76.5800       649
  76.6000       608
  76.6200       628
  76.6400       628
  76.6600       568
  76.6800       620
  76.7000       655
  76.7200       599
  76.7400       600
  76.7600       641
  76.7800       572
  76.8000       597
  76.8200       591
  76.8400       566
  76.8600       570
  76.8800       614
  76.9000       588
  76.9200       577
  76.9400       617
  76.9600       589
  76.9800       629
  77.0000       566
  77.0200       575
  77.0400       596
  77.0600       595
  77.0800       627
  77.1000       624
  77.1200       570
  77.1400       599
  77.1600       559
  77.1800       582
  77.2000       584
  77.2200       599
  77.2400       612
  77.2600       586
  77.2800       583
  77.3000       593
  77.3200       614
  77.3400       572
  77.3600       565
  77.3800       610
  77.4000       597
  77.4200       614
  77.4400       596
  77.4600       599
  77.4800       602
  77.5000       604
  77.5200       606
  77.5400       594
  77.5600       581
  77.5800       617
  77.6000       584
  77.6200       564
  77.6400       602
  77.6600       616
  77.6800       610
  77.7000       547
  77.7200       604
  77.7400       583
  77.7600       571
  77.7800       597
  77.8000       603
  77.8200       610
  77.8400       661
  77.8600       610
  77.8800       581
  77.9000       653
  77.9200       553
  77.9400       579
  77.9600       639
  77.9800       587
  78.0000       586
  78.0200       600
  78.0400       540
  78.0600       628
  78.0800       575
  78.1000       593
  78.1200       583
  78.1400       591
  78.1600       580
  78.1800       605
  78.2000       592
  78.2200       615
  78.2400       550
  78.2600       585
  78.2800       618
  78.3000       605
  78.3200       601
  78.3400       575
  78.3600       577
  78.3800       580
  78.4000       590
  78.4200       594
  78.4400       629
  78.4600       555
  78.4800       618
  78.5000       591
  78.5200       611
  78.5400       624
  78.5600       599
  78.5800       600
  78.6000       596
  78.6200       624
  78.6400       581
  78.6600       609
  78.6800       610
  78.7000       606
  78.7200       604
  78.7400       597
  78.7600       630
  78.7800       560
  78.8000       594
  78.8200       578
  78.8400       631
  78.8600       607
  78.8800       590
  78.9000       625
  78.9200       586
  78.9400       570
  78.9600       628
  78.9800       651
  79.0000       588
  79.0200       609
  79.0400       571
  79.0600       611
  79.0800       591
  79.1000       590
  79.1200       596
  79.1400       624
  79.1600       611
  79.1800       599
  79.2000       615
  79.2200       642
  79.2400       612
  79.2600       607
  79.2800       599
  79.3000       609
  79.3200       586
  79.3400       632
  79.3600       561
  79.3800       578
  79.4000       581
  79.4200       600
  79.4400       591
  79.4600       601
  79.4800       613
  79.5000       629
  79.5200       630
  79.5400       592
  79.5600       582
  79.5800       617
  79.6000       585
  79.6200       620
  79.6400       628
  79.6600       598
  79.6800       594
  79.7000       613
  79.7200       639
  79.7400       640
  79.7600       585
  79.7800       591
  79.8000       603
  79.8200       607
  79.8400       603
  79.8600       572
  79.8800       579
  79.9000       605
  79.9200       607
  79.9400       618
  79.9600       587
  79.9800       612
  80.0000       633
  80.0200       599
  80.0400       592
  80.0600       589
  80.0800       615
  80.1000       600
  80.1200       645
  80.1400       630
  80.1600       697
  80.1800       642
  80.2000       632
  80.2200       629
  80.2400       632
  80.2600       657
  80.2800       581
  80.3000       605
  80.3200       594
  80.3400       598
  80.3600       633
  80.3800       613
  80.4000       643
  80.4200       654
  80.4400       601
  80.4600       602
  80.4800       646
  80.5000       587
  80.5200       603
  80.5400       636
  80.5600       611
  80.5800       621
  80.6000       688
  80.6200       623
  80.6400       606
  80.6600       666
  80.6800       641
  80.7000       672
  80.7200       655
  80.7400       624
  80.7600       678
  80.7800       684
  80.8000       618
  80.8200       636
  80.8400       672
  80.8600       668
  80.8800       647
  80.9000       621
  80.9200       653
  80.9400       642
  80.9600       641
  80.9800       713
  81.0000       664
  81.0200       699
  81.0400       687
  81.0600       658
  81.0800       684
  81.1000       609
  81.1200       694
  81.1400       637
  81.1600       679
  81.1800       686
  81.2000       640
  81.2200       643
  81.2400       711
  81.2600       678
  81.2800       637
  81.3000       660
  81.3200       647
  81.3400       645
  81.3600       694
  81.3800       674
  81.4000       667
  81.4200       700
  81.4400       675
  81.4600       662
  81.4800       684
  81.5000       637
  81.5200       691
  81.5400       628
  81.5600       645
  81.5800       674
  81.6000       695
  81.6200       674
  81.6400       678
  81.6600       665
  81.6800       688
  81.7000       678
  81.7200       635
  81.7400       689
  81.7600       673
  81.7800       679
  81.8000       625
  81.8200       719
  81.8400       642
  81.8600       619
  81.8800       641
  81.9000       707
  81.9200       704
  81.9400       620
  81.9600       611
  81.9800       638
  82.0000       618
  82.0200       640
  82.0400       658
  82.0600       689
  82.0800       677
  82.1000       665
  82.1200       669
  82.1400       648
  82.1600       651
  82.1800       716
  82.2000       645
  82.2200       655
  82.2400       682
  82.2600       711
  82.2800       675
  82.3000       664
  82.3200       661
  82.3400       687
  82.3600       653
  82.3800       635
  82.4000       641
  82.4200       656
  82.4400       679
  82.4600       615
  82.4800       692
  82.5000       649
  82.5200       656
  82.5400       652
  82.5600       647
  82.5800       632
  82.6000       679
  82.6200       650
  82.6400       719
  82.6600       648
  82.6800       657
  82.7000       655
  82.7200       684
  82.7400       680
  82.7600       723
  82.7800       676
  82.8000       683
  82.8200       646
  82.8400       698
  82.8600       672
  82.8800       657
  82.9000       646
  82.9200       703
  82.9400       679
  82.9600       608
  82.9800       700
  83.0000       714
  83.0200       664
  83.0400       711
  83.0600       632
  83.0800       659
  83.1000       643
  83.1200       686
  83.1400       655
  83.1600       699
  83.1800       656
  83.2000       672
  83.2200       682
  83.2400       703
  83.2600       663
  83.2800       667
  83.3000       645
  83.3200       680
  83.3400       661
  83.3600       687
  83.3800       697
  83.4000       723
  83.4200       718
  83.4400       718
  83.4600       661
  83.4800       615
  83.5000       704
  83.5200       687
  83.5400       752
  83.5600       736
  83.5800       690
  83.6000       637
  83.6200       650
  83.6400       722
  83.6600       721
  83.6800       747
  83.7000       706
  83.7200       724
  83.7400       766
  83.7600       719
  83.7800       727
  83.8000       720
  83.8200       733
  83.8400       746
  83.8600       703
  83.8800       711
  83.9000       777
  83.9200       715
  83.9400       735
  83.9600       718
  83.9800       721
  84.0000       739
  84.0200       780
  84.0400       789
  84.0600       736
  84.0800       766
  84.1000       750
  84.1200       848
  84.1400       763
  84.1600       772
  84.1800       744
  84.2000       814
  84.2200       773
  84.2400       830
  84.2600       829
  84.2800       791
  84.3000       764
  84.3200       817
  84.3400       800
  84.3600       818
  84.3800       816
  84.4000       842
  84.4200       803
  84.4400       785
  84.4600       820
  84.4800       848
  84.5000       858
  84.5200       838
  84.5400       867
  84.5600       879
  84.5800       894
  84.6000       925
  84.6200       815
  84.6400       817
  84.6600       906
  84.6800       873
  84.7000       847
  84.7200       848
  84.7400       853
  84.7600       866
  84.7800       883
  84.8000       923
  84.8200       850
  84.8400       883
  84.8600       841
  84.8800       892
  84.9000       874
  84.9200       913
  84.9400       867
  84.9600       838
  84.9800       866
  85.0000       875
  85.0200       869
  85.0400       879
  85.0600       870
  85.0800       879
  85.1000       893
  85.1200       867
  85.1400       868
  85.1600       889
  85.1800       906
  85.2000       876
  85.2200       867
  85.2400       828
  85.2600       844
  85.2800       847
  85.3000       898
  85.3200       828
  85.3400       821
  85.3600       867
  85.3800       831
  85.4000       852
  85.4200       839
  85.4400       799
  85.4600       833
  85.4800       804
  85.5000       887
  85.5200       818
  85.5400       839
  85.5600       858
  85.5800       783
  85.6000       883
  85.6200       891
  85.6400       896
  85.6600       878
  85.6800       894
  85.7000       935
  85.7200       948
  85.7400       835
  85.7600       900
  85.7800       926
  85.8000       955
  85.8200       937
  85.8400       937
  85.8600       957
  85.8800       945
  85.9000       988
  85.9200       974
  85.9400       960
  85.9600       941
  85.9800      1024
  86.0000       989
  86.0200       980
  86.0400       921
  86.0600       939
  86.0800       904
  86.1000       928
  86.1200       927
  86.1400       941
  86.1600       912
  86.1800       885
  86.2000       836
  86.2200       850
  86.2400       841
  86.2600       835
  86.2800       799
  86.3000       804
  86.3200       846
  86.3400       777
  86.3600       798
  86.3800       720
  86.4000       743
  86.4200       749
  86.4400       759
  86.4600       729
  86.4800       688
  86.5000       695
  86.5200       702
  86.5400       727
  86.5600       717
  86.5800       695
  86.6000       695
  86.6200       706
  86.6400       630
  86.6600       674
  86.6800       697
  86.7000       655
  86.7200       639
  86.7400       653
  86.7600       648
  86.7800       683
  86.8000       625
  86.8200       639
  86.8400       611
  86.8600       657
  86.8800       668
  86.9000       696
  86.9200       695
  86.9400       585
  86.9600       665
  86.9800       654
  87.0000       646
  87.0200       641
  87.0400       671
  87.0600       631
  87.0800       602
  87.1000       617
  87.1200       678
  87.1400       608
  87.1600       661
  87.1800       649
  87.2000       612
  87.2200       614
  87.2400       620
  87.2600       617
  87.2800       607
  87.3000       643
  87.3200       615
  87.3400       655
  87.3600       673
  87.3800       627
  87.4000       672
  87.4200       635
  87.4400       643
  87.4600       617
  87.4800       611
  87.5000       653
  87.5200       683
  87.5400       663
  87.5600       700
  87.5800       624
  87.6000       628
  87.6200       654
  87.6400       648
  87.6600       652
  87.6800       632
  87.7000       624
  87.7200       653
  87.7400       660
  87.7600       621
  87.7800       671
  87.8000       645
  87.8200       626
  87.8400       615
  87.8600       661
  87.8800       636
  87.9000       698
  87.9200       607
  87.9400       591
  87.9600       613
  87.9800       638
  88.0000       640
  88.0200       630
  88.0400       677
  88.0600       650
  88.0800       614
  88.1000       630
  88.1200       641
  88.1400       651
  88.1600       684
  88.1800       673
  88.2000       647
  88.2200       665
  88.2400       628
  88.2600       647
  88.2800       677
  88.3000       627
  88.3200       637
  88.3400       600
  88.3600       650
  88.3800       625
  88.4000       651
  88.4200       599
  88.4400       642
  88.4600       653
  88.4800       671
  88.5000       657
  88.5200       637
  88.5400       680
  88.5600       673
  88.5800       642
  88.6000       644
  88.6200       644
  88.6400       655
  88.6600       648
  88.6800       634
  88.7000       658
  88.7200       657
  88.7400       638
  88.7600       656
  88.7800       638
  88.8000       719
  88.8200       643
  88.8400       639
  88.8600       626
  88.8800       703
  88.9000       673
  88.9200       639
  88.9400       639
  88.9600       687
  88.9800       657
  89.0000       674
  89.0200       652
  89.0400       672
  89.0600       683
  89.0800       678
  89.1000       674
  89.1200       656
  89.1400       672
  89.1600       674
  89.1800       692
  89.2000       652
  89.2200       649
  89.2400       668
  89.2600       710
  89.2800       645
  89.3000       677
  89.3200       673
  89.3400       704
  89.3600       700
  89.3800       702
  89.4000       681
  89.4200       693
  89.4400       638
  89.4600       716
  89.4800       669
  89.5000       659
  89.5200       664
  89.5400       680
  89.5600       676
  89.5800       696
  89.6000       733
  89.6200       733
  89.6400       703
  89.6600       701
  89.6800       688
  89.7000       626
  89.7200       683
  89.7400       671
  89.7600       662
  89.7800       669
  89.8000       716
  89.8200       676
  89.8400       705
  89.8600       647
  89.8800       684
  89.9000       669
  89.9200       718
  89.9400       689
  89.9600       680
  89.9800       670
  90.0000       628
  90.0200       683
  90.0400       667
  90.0600       704
  90.0800       669
  90.1000       684
  90.1200       664
  90.1400       629
  90.1600       652
  90.1800       659
  90.2000       723
  90.2200       688
  90.2400       649
  90.2600       693
  90.2800       592
  90.3000       618
  90.3200       665
  90.3400       664
  90.3600       667
  90.3800       650
  90.4000       630
  90.4200       682
  90.4400       669
  90.4600       662
  90.4800       659
  90.5000       615
  90.5200       663
  90.5400       633
  90.5600       668
  90.5800       716
  90.6000       677
  90.6200       631
  90.6400       711
  90.6600       667
  90.6800       705
  90.7000       686
  90.7200       693
  90.7400       679
  90.7600       660
  90.7800       691
  90.8000       699
  90.8200       711
  90.8400       718
  90.8600       709
  90.8800       699
  90.9000       706
  90.9200       639
  90.9400       734
  90.9600       675
  90.9800       705
  91.0000       713
  91.0200       627
  91.0400       631
  91.0600       674
  91.0800       629
  91.1000       669
  91.1200       661
  91.1400       695
  91.1600       659
  91.1800       634
  91.2000       666
  91.2200       664
  91.2400       601
  91.2600       597
  91.2800       671
  91.3000       629
  91.3200       596
  91.3400       613
  91.3600       620
  91.3800       596
  91.4000       620
  91.4200       662
  91.4400       638
  91.4600       567
  91.4800       622
  91.5000       587
  91.5200       596
  91.5400       572
  91.5600       649
  91.5800       622
  91.6000       627
  91.6200       571
  91.6400       577
  91.6600       608
  91.6800       620
  91.7000       587
  91.7200       625
  91.7400       600
  91.7600       596
  91.7800       573
  91.8000       604
  91.8200       611
  91.8400       595
  91.8600       591
  91.8800       615
  91.9000       623
  91.9200       572
  91.9400       606
  91.9600       647
  91.9800       623
  92.0000       585
  92.0200       594
  92.0400       622
  92.0600       599
  92.0800       598
  92.1000       589
  92.1200       610
  92.1400       619
  92.1600       607
  92.1800       589
  92.2000       582
  92.2200       574
  92.2400       632
  92.2600       638
  92.2800       624
  92.3000       618
  92.3200       625
  92.3400       622
  92.3600       582
  92.3800       612
  92.4000       623
  92.4200       623
  92.4400       582
  92.4600       672
  92.4800       549
  92.5000       544
  92.5200       592
  92.5400       631
  92.5600       631
  92.5800       622
  92.6000       575
  92.6200       619
  92.6400       588
  92.6600       630
  92.6800       599
  92.7000       610
  92.7200       586
  92.7400       613
  92.7600       577
  92.7800       594
  92.8000       577
  92.8200       579
  92.8400       609
  92.8600       585
  92.8800       598
  92.9000       592
  92.9200       596
  92.9400       592
  92.9600       609
  92.9800       649
  93.0000       598
  93.0200       601
  93.0400       578
  93.0600       603
  93.0800       595
  93.1000       613
  93.1200       630
  93.1400       625
  93.1600       638
  93.1800       609
  93.2000       658
  93.2200       599
  93.2400       621
  93.2600       584
  93.2800       591
  93.3000       614
  93.3200       595
  93.3400       558
  93.3600       602
  93.3800       556
  93.4000       601
  93.4200       608
  93.4400       606
  93.4600       607
  93.4800       602
  93.5000       611
  93.5200       594
  93.5400       576
  93.5600       560
  93.5800       570
  93.6000       594
  93.6200       602
  93.6400       627
  93.6600       613
  93.6800       599
  93.7000       590
  93.7200       653
  93.7400       608
  93.7600       580
  93.7800       634
  93.8000       624
  93.8200       575
  93.8400       630
  93.8600       636
  93.8800       577
  93.9000       590
  93.9200       609
  93.9400       633
  93.9600       583
  93.9800       587
  94.0000       602
  94.0200       571
  94.0400       585
  94.0600       610
  94.0800       606
  94.1000       585
  94.1200       615
  94.1400       567
  94.1600       601
  94.1800       602
  94.2000       641
  94.2200       630
  94.2400       601
  94.2600       586
  94.2800       587
  94.3000       646
  94.3200       589
  94.3400       619
  94.3600       612
  94.3800       648
  94.4000       584
  94.4200       629
  94.4400       622
  94.4600       579
  94.4800       579
  94.5000       620
  94.5200       611
  94.5400       630
  94.5600       574
  94.5800       591
  94.6000       601
  94.6200       610
  94.6400       604
  94.6600       633
  94.6800       607
  94.7000       585
  94.7200       611
  94.7400       651
  94.7600       670
  94.7800       613
  94.8000       638
  94.8200       611
  94.8400       592
  94.8600       594
  94.8800       621
  94.9000       595
  94.9200       616
  94.9400       607
  94.9600       623
  94.9800       615
  95.0000       626
  95.0200       638
  95.0400       579
  95.0600       633
  95.0800       646
  95.1000       666
  95.1200       664
  95.1400       599
  95.1600       632
  95.1800       619
  95.2000       606
  95.2200       637
  95.2400       622
  95.2600       636
  95.2800       627
  95.3000       684
  95.3200       606
  95.3400       670
  95.3600       609
  95.3800       649
  95.4000       664
  95.4200       700
  95.4400       603
  95.4600       664
  95.4800       630
  95.5000       645
  95.5200       675
  95.5400       621
  95.5600       602
  95.5800       648
  95.6000       644
  95.6200       618
  95.6400       614
  95.6600       657
  95.6800       628
  95.7000       654
  95.7200       646
  95.7400       661
  95.7600       651
  95.7800       651
  95.8000       700
  95.8200       625
  95.8400       678
  95.8600       700
  95.8800       625
  95.9000       608
  95.9200       627
  95.9400       635
  95.9600       646
  95.9800       605
  96.0000       600
  96.0200       684
  96.0400       616
  96.0600       635
  96.0800       610
  96.1000       613
  96.1200       633
  96.1400       614
  96.1600       630
  96.1800       640
  96.2000       613
  96.2200       628
  96.2400       640
  96.2600       621
  96.2800       678
  96.3000       597
  96.3200       588
  96.3400       614
  96.3600       639
  96.3800       624
  96.4000       632
  96.4200       622
  96.4400       558
  96.4600       631
  96.4800       638
  96.5000       608
  96.5200       580
  96.5400       591
  96.5600       664
  96.5800       605
  96.6000       643
  96.6200       626
  96.6400       643
  96.6600       601
  96.6800       594
  96.7000       656
  96.7200       565
  96.7400       650
  96.7600       621
  96.7800       629
  96.8000       623
  96.8200       613
  96.8400       633
  96.8600       612
  96.8800       636
  96.9000       621
  96.9200       628
  96.9400       594
  96.9600       648
  96.9800       611
  97.0000       645
  97.0200       599
  97.0400       628
  97.0600       595
  97.0800       638
  97.1000       640
  97.1200       614
  97.1400       606
  97.1600       616
  97.1800       614
  97.2000       663
  97.2200       578
  97.2400       626
  97.2600       605
  97.2800       627
  97.3000       592
  97.3200       579
  97.3400       580
  97.3600       602
  97.3800       590
  97.4000       657
  97.4200       622
  97.4400       591
  97.4600       597
  97.4800       594
  97.5000       567
  97.5200       622
  97.5400       608
  97.5600       635
  97.5800       592
  97.6000       552
  97.6200       582
  97.6400       581
  97.6600       607
  97.6800       621
  97.7000       555
  97.7200       623
  97.7400       604
  97.7600       620
  97.7800       606
  97.8000       644
  97.8200       603
  97.8400       622
  97.8600       635
  97.8800       682
  97.9000       664
  97.9200       612
  97.9400       633
  97.9600       639
  97.9800       577
  98.0000       643
  98.0200       610
  98.0400       596
  98.0600       610
  98.0800       608
  98.1000       606
  98.1200       606
  98.1400       649
  98.1600       615
  98.1800       595
  98.2000       624
  98.2200       616
  98.2400       653
  98.2600       620
  98.2800       589
  98.3000       633
  98.3200       628
  98.3400       628
  98.3600       587
  98.3800       616
  98.4000       632
  98.4200       579
  98.4400       626
  98.4600       610
  98.4800       622
  98.5000       602
  98.5200       638
  98.5400       623
  98.5600       618
  98.5800       573
  98.6000       628
  98.6200       639
  98.6400       613
  98.6600       634
  98.6800       612
  98.7000       643
  98.7200       634
  98.7400       628
  98.7600       615
  98.7800       669
  98.8000       602
  98.8200       590
  98.8400       638
  98.8600       619
  98.8800       617
  98.9000       622
  98.9200       618
  98.9400       602
  98.9600       612
  98.9800       604
  99.0000       601
  99.0200       658
  99.0400       616
  99.0600       655
  99.0800       618
  99.1000       651
  99.1200       601
  99.1400       612
  99.1600       650
  99.1800       608
  99.2000       627
  99.2200       640
  99.2400       585
  99.2600       622
  99.2800       620
  99.3000       634
  99.3200       622
  99.3400       606
  99.3600       586
  99.3800       584
  99.4000       648
  99.4200       607
  99.4400       603
  99.4600       646
  99.4800       657
  99.5000       612
  99.5200       593
  99.5400       626
  99.5600       625
  99.5800       634
  99.6000       659
  99.6200       611
  99.6400       620
  99.6600       627
  99.6800       584
  99.7000       620
  99.7200       601
  99.7400       623
  99.7600       653
  99.7800       615
  99.8000       664
  99.8200       638
  99.8400       671
  99.8600       622
  99.8800       605
  99.9000       648
  99.9200       642
  99.9400       589
  99.9600       632
  99.9800       640
 100.0000       689
 100.0200       645
 100.0400       640
 100.0600       653
 100.0800       643
 100.1000       664
 100.1200       639
 100.1400       649
 100.1600       683
 100.1800       638
 100.2000       617
 100.2200       669
 100.2400       656
 100.2600       633
 100.2800       658
 100.3000       673
 100.3200       654
 100.3400       639
 100.3600       644
 100.3800       601
 100.4000       687
 100.4200       660
 100.4400       678
 100.4600       638
 100.4800       697
 100.5000       636
 100.5200       697
 100.5400       657
 100.5600       640
 100.5800       645
 100.6000       674
 100.6200       684
 100.6400       689
 100.6600       627
 100.6800       647
 100.7000       639
 100.7200       616
 100.7400       660
 100.7600       665
 100.7800       705
 100.8000       637
 100.8200       621
 100.8400       680
 100.8600       682
 100.8800       682
 100.9000       639
 100.9200       617
 100.9400       673
 100.9600       655
 100.9800       608
 101.0000       627
 101.0200       633
 101.0400       653
 101.0600       637
 101.0800       618
 101.1000       630
 101.1200       629
 101.1400       665
 101.1600       637
 101.1800       626
 101.2000       615
 101.2200       658
 101.2400       617
 101.2600       602
 101.2800       604
 101.3000       679
 101.3200       625
 101.3400       643
 101.3600       644
 101.3800       610
 101.4000       621
 101.4200       648
 101.4400       654
 101.4600       599
 101.4800       588
 101.5000       620
 101.5200       574
 101.5400       616
 101.5600       639
 101.5800       645
 101.6000       617
 101.6200       562
 101.6400       638
 101.6600       629
 101.6800       620
 101.7000       616
 101.7200       630
 101.7400       602
 101.7600       624
 101.7800       609
 101.8000       625
 101.8200       593
 101.8400       599
 101.8600       616
 101.8800       613
 101.9000       616
 101.9200       662
 101.9400       611
 101.9600       607
 101.9800       623
 102.0000       633
 102.0200       616
 102.0400       630
 102.0600       672
 102.0800       623
 102.1000       679
 102.1200       645
 102.1400       629
 102.1600       612
 102.1800       595
 102.2000       629
 102.2200       644
 102.2400       637
 102.2600       620
 102.2800       603
 102.3000       682
 102.3200       614
 102.3400       615
 102.3600       599
 102.3800       653
 102.4000       604
 102.4200       666
 102.4400       624
 102.4600       661
 102.4800       559
 102.5000       690
 102.5200       642
 102.5400       609
 102.5600       618
 102.5800       610
 102.6000       618
 102.6200       592
 102.6400       601
 102.6600       621
 102.6800       673
 102.7000       589
 102.7200       691
 102.7400       594
 102.7600       636
 102.7800       631
 102.8000       634
 102.8200       633
 102.8400       621
 102.8600       603
 102.8800       566
 102.9000       631
 102.9200       590
 102.9400       608
 102.9600       673
 102.9800       616
 103.0000       634
 103.0200       631
 103.0400       601
 103.0600       597
 103.0800       632
 103.1000       645
 103.1200       687
 103.1400       591
 103.1600       623
 103.1800       602
 103.2000       624
 103.2200       562
 103.2400       642
 103.2600       610
 103.2800       618
 103.3000       641
 103.3200       622
 103.3400       585
 103.3600       607
 103.3800       585
 103.4000       632
 103.4200       669
 103.4400       579
 103.4600       586
 103.4800       628
 103.5000       608
 103.5200       591
 103.5400       624
 103.5600       682
 103.5800       654
 103.6000       637
 103.6200       661
 103.6400       610
 103.6600       614
 103.6800       617
 103.7000       592
 103.7200       650
 103.7400       607
 103.7600       590
 103.7800       623
 103.8000       628
 103.8200       649
 103.8400       616
 103.8600       626
 103.8800       650
 103.9000       668
 103.9200       610
 103.9400       666
 103.9600       650
 103.9800       650
 104.0000       587
 104.0200       611
 104.0400       629
 104.0600       609
 104.0800       618
 104.1000       614
 104.1200       653
 104.1400       613
 104.1600       645
 104.1800       635
 104.2000       588
 104.2200       636
 104.2400       612
 104.2600       616
 104.2800       608
 104.3000       623
 104.3200       653
 104.3400       613
 104.3600       625
 104.3800       623
 104.4000       623
 104.4200       591
 104.4400       588
 104.4600       657
 104.4800       590
 104.5000       593
 104.5200       609
 104.5400       643
 104.5600       624
 104.5800       624
 104.6000       646
 104.6200       608
 104.6400       637
 104.6600       629
 104.6800       610
 104.7000       641
 104.7200       671
 104.7400       611
 104.7600       603
 104.7800       655
 104.8000       635
 104.8200       608
 104.8400       640
 104.8600       583
 104.8800       628
 104.9000       683
 104.9200       680
 104.9400       649
 104.9600       663
 104.9800       638
 105.0000       615
