; C:\Data\Jenni\Praktikum B2.2\Probe4_450abgeschreckt_abgeschliffen_Messung.raw(Diffrac Plus V1.01 file) converted by XCH V1.0
_FILEVERSION=2
_SAMPLE='Probe 4'
_SITE='II. Physikalisches Institut'
_ATTACHMENTS_CODE=0
_GONIOMETER_RADIUS=200.500000
_FIXED_DIVSLIT=2.000000
_FIXED_SAMPLESLIT=1.000000
_FIXED_DETSLIT=0.200000
_MONOCHROMATOR=0
; None
_THIN_FILM='N'
_BETA_FILTER='Y'
_FIXED_ANTISLIT=2.000000
_ANALYZER_CODE=0
; None
_DATEMEASURED='23-Nov-2018 12:39:02'
_WL_UNIT='A'
_WL1=1.540590
_WL2=1.544430
_WL3=1.392230
_WLRATIO=0.520000
_ANODE='Cu'
; (Data for Range number 1)
_DRIVE='COUPLED'
_STEPTIME=5.000000
_STEPSIZE=0.020000
_STEPMODE='C'
_START=20.000000
_THETA=10.000000
_2THETA=20.000000
_KHI=0.000000
_PHI=0.000000
_X=0.000000
_Y=0.000000
_Z=0.000000
_DIVERGENCE=0.000000
_ANTISCATTER=0.000000
_DETECTOR=1
; S.C.
_HV=1000.000000
_GAIN=80.000000
_LLD=0.550000
_ULD=1.310000
_DETECTORSLIT='unkn'
_AUX1=0.000000
_AUX2=0.000000
_AUX3=0.000000
_TIMESTARTED=14.000000
_ROTATION_SPEED=120.000000
_TEMP_RATE=-1.000000
_TEMP_DELAY=-1.000000
_KV=40
_MA=40
_RANGE_WL=1.540590
_3DPLANE=0
_2THETACOUNTS
  20.0000       444
  20.0200       402
  20.0400       457
  20.0600       427
  20.0800       421
  20.1000       450
  20.1200       407
  20.1400       398
  20.1600       432
  20.1800       459
  20.2000       470
  20.2200       430
  20.2400       402
  20.2600       426
  20.2800       419
  20.3000       427
  20.3200       427
  20.3400       423
  20.3600       407
  20.3800       429
  20.4000       430
  20.4200       444
  20.4400       472
  20.4600       456
  20.4800       454
  20.5000       422
  20.5200       400
  20.5400       502
  20.5600       463
  20.5800       488
  20.6000       409
  20.6200       461
  20.6400       481
  20.6600       495
  20.6800       461
  20.7000       458
  20.7200       461
  20.7400       449
  20.7600       457
  20.7800       420
  20.8000       462
  20.8200       443
  20.8400       456
  20.8600       446
  20.8800       429
  20.9000       451
  20.9200       433
  20.9400       483
  20.9600       423
  20.9800       415
  21.0000       457
  21.0200       470
  21.0400       443
  21.0600       432
  21.0800       444
  21.1000       431
  21.1200       436
  21.1400       443
  21.1600       476
  21.1800       452
  21.2000       461
  21.2200       439
  21.2400       472
  21.2600       459
  21.2800       471
  21.3000       440
  21.3200       460
  21.3400       419
  21.3600       484
  21.3800       423
  21.4000       453
  21.4200       476
  21.4400       440
  21.4600       486
  21.4800       458
  21.5000       484
  21.5200       483
  21.5400       478
  21.5600       484
  21.5800       486
  21.6000       437
  21.6200       447
  21.6400       442
  21.6600       423
  21.6800       491
  21.7000       435
  21.7200       421
  21.7400       439
  21.7600       454
  21.7800       464
  21.8000       438
  21.8200       429
  21.8400       447
  21.8600       440
  21.8800       481
  21.9000       440
  21.9200       411
  21.9400       451
  21.9600       462
  21.9800       427
  22.0000       455
  22.0200       458
  22.0400       493
  22.0600       428
  22.0800       438
  22.1000       459
  22.1200       446
  22.1400       444
  22.1600       418
  22.1800       442
  22.2000       402
  22.2200       443
  22.2400       385
  22.2600       433
  22.2800       451
  22.3000       461
  22.3200       434
  22.3400       437
  22.3600       471
  22.3800       436
  22.4000       452
  22.4200       448
  22.4400       472
  22.4600       444
  22.4800       444
  22.5000       454
  22.5200       449
  22.5400       413
  22.5600       439
  22.5800       434
  22.6000       392
  22.6200       420
  22.6400       434
  22.6600       419
  22.6800       445
  22.7000       450
  22.7200       448
  22.7400       471
  22.7600       425
  22.7800       447
  22.8000       445
  22.8200       416
  22.8400       463
  22.8600       457
  22.8800       372
  22.9000       417
  22.9200       462
  22.9400       429
  22.9600       458
  22.9800       457
  23.0000       432
  23.0200       467
  23.0400       429
  23.0600       453
  23.0800       445
  23.1000       429
  23.1200       474
  23.1400       426
  23.1600       434
  23.1800       446
  23.2000       423
  23.2200       390
  23.2400       438
  23.2600       472
  23.2800       443
  23.3000       444
  23.3200       424
  23.3400       454
  23.3600       418
  23.3800       450
  23.4000       436
  23.4200       425
  23.4400       436
  23.4600       452
  23.4800       481
  23.5000       439
  23.5200       453
  23.5400       406
  23.5600       442
  23.5800       406
  23.6000       405
  23.6200       442
  23.6400       445
  23.6600       440
  23.6800       414
  23.7000       425
  23.7200       465
  23.7400       478
  23.7600       431
  23.7800       448
  23.8000       420
  23.8200       472
  23.8400       469
  23.8600       448
  23.8800       421
  23.9000       415
  23.9200       464
  23.9400       453
  23.9600       448
  23.9800       438
  24.0000       451
  24.0200       421
  24.0400       410
  24.0600       399
  24.0800       413
  24.1000       433
  24.1200       447
  24.1400       425
  24.1600       506
  24.1800       423
  24.2000       460
  24.2200       452
  24.2400       450
  24.2600       453
  24.2800       485
  24.3000       432
  24.3200       432
  24.3400       431
  24.3600       458
  24.3800       461
  24.4000       460
  24.4200       418
  24.4400       464
  24.4600       424
  24.4800       438
  24.5000       421
  24.5200       429
  24.5400       438
  24.5600       440
  24.5800       453
  24.6000       452
  24.6200       436
  24.6400       453
  24.6600       442
  24.6800       463
  24.7000       464
  24.7200       417
  24.7400       426
  24.7600       453
  24.7800       499
  24.8000       406
  24.8200       482
  24.8400       401
  24.8600       435
  24.8800       451
  24.9000       441
  24.9200       481
  24.9400       473
  24.9600       424
  24.9800       459
  25.0000       433
  25.0200       430
  25.0400       425
  25.0600       448
  25.0800       463
  25.1000       455
  25.1200       437
  25.1400       417
  25.1600       440
  25.1800       447
  25.2000       432
  25.2200       427
  25.2400       443
  25.2600       448
  25.2800       416
  25.3000       430
  25.3200       452
  25.3400       406
  25.3600       419
  25.3800       477
  25.4000       407
  25.4200       462
  25.4400       439
  25.4600       405
  25.4800       433
  25.5000       433
  25.5200       435
  25.5400       432
  25.5600       466
  25.5800       456
  25.6000       432
  25.6200       458
  25.6400       428
  25.6600       436
  25.6800       424
  25.7000       458
  25.7200       438
  25.7400       397
  25.7600       381
  25.7800       443
  25.8000       440
  25.8200       407
  25.8400       436
  25.8600       468
  25.8800       432
  25.9000       433
  25.9200       447
  25.9400       435
  25.9600       446
  25.9800       459
  26.0000       390
  26.0200       441
  26.0400       430
  26.0600       386
  26.0800       449
  26.1000       475
  26.1200       433
  26.1400       403
  26.1600       426
  26.1800       460
  26.2000       447
  26.2200       402
  26.2400       431
  26.2600       435
  26.2800       429
  26.3000       423
  26.3200       433
  26.3400       442
  26.3600       450
  26.3800       450
  26.4000       423
  26.4200       445
  26.4400       428
  26.4600       438
  26.4800       405
  26.5000       427
  26.5200       475
  26.5400       444
  26.5600       447
  26.5800       446
  26.6000       441
  26.6200       403
  26.6400       412
  26.6600       449
  26.6800       423
  26.7000       459
  26.7200       412
  26.7400       436
  26.7600       477
  26.7800       455
  26.8000       431
  26.8200       426
  26.8400       414
  26.8600       433
  26.8800       416
  26.9000       423
  26.9200       417
  26.9400       462
  26.9600       422
  26.9800       473
  27.0000       493
  27.0200       545
  27.0400       493
  27.0600       560
  27.0800       520
  27.1000       498
  27.1200       498
  27.1400       499
  27.1600       456
  27.1800       431
  27.2000       449
  27.2200       467
  27.2400       443
  27.2600       436
  27.2800       460
  27.3000       403
  27.3200       454
  27.3400       443
  27.3600       431
  27.3800       493
  27.4000       383
  27.4200       426
  27.4400       486
  27.4600       421
  27.4800       423
  27.5000       458
  27.5200       466
  27.5400       463
  27.5600       454
  27.5800       431
  27.6000       422
  27.6200       413
  27.6400       468
  27.6600       466
  27.6800       422
  27.7000       454
  27.7200       431
  27.7400       449
  27.7600       435
  27.7800       421
  27.8000       423
  27.8200       456
  27.8400       409
  27.8600       454
  27.8800       433
  27.9000       444
  27.9200       422
  27.9400       434
  27.9600       452
  27.9800       474
  28.0000       440
  28.0200       439
  28.0400       451
  28.0600       425
  28.0800       465
  28.1000       380
  28.1200       432
  28.1400       427
  28.1600       451
  28.1800       482
  28.2000       441
  28.2200       416
  28.2400       454
  28.2600       460
  28.2800       473
  28.3000       465
  28.3200       469
  28.3400       476
  28.3600       440
  28.3800       434
  28.4000       458
  28.4200       416
  28.4400       444
  28.4600       436
  28.4800       434
  28.5000       437
  28.5200       454
  28.5400       457
  28.5600       522
  28.5800       460
  28.6000       451
  28.6200       456
  28.6400       471
  28.6600       474
  28.6800       442
  28.7000       409
  28.7200       452
  28.7400       430
  28.7600       429
  28.7800       426
  28.8000       448
  28.8200       460
  28.8400       459
  28.8600       446
  28.8800       457
  28.9000       457
  28.9200       409
  28.9400       449
  28.9600       446
  28.9800       416
  29.0000       425
  29.0200       439
  29.0400       455
  29.0600       448
  29.0800       449
  29.1000       455
  29.1200       408
  29.1400       437
  29.1600       412
  29.1800       449
  29.2000       486
  29.2200       423
  29.2400       433
  29.2600       419
  29.2800       421
  29.3000       419
  29.3200       441
  29.3400       457
  29.3600       457
  29.3800       460
  29.4000       441
  29.4200       450
  29.4400       433
  29.4600       414
  29.4800       440
  29.5000       415
  29.5200       457
  29.5400       424
  29.5600       436
  29.5800       461
  29.6000       461
  29.6200       406
  29.6400       474
  29.6600       409
  29.6800       441
  29.7000       440
  29.7200       456
  29.7400       420
  29.7600       452
  29.7800       390
  29.8000       426
  29.8200       446
  29.8400       439
  29.8600       416
  29.8800       412
  29.9000       410
  29.9200       419
  29.9400       438
  29.9600       427
  29.9800       410
  30.0000       393
  30.0200       413
  30.0400       399
  30.0600       437
  30.0800       432
  30.1000       452
  30.1200       471
  30.1400       446
  30.1600       457
  30.1800       479
  30.2000       423
  30.2200       405
  30.2400       418
  30.2600       428
  30.2800       425
  30.3000       438
  30.3200       439
  30.3400       425
  30.3600       413
  30.3800       440
  30.4000       411
  30.4200       442
  30.4400       416
  30.4600       426
  30.4800       448
  30.5000       427
  30.5200       435
  30.5400       409
  30.5600       438
  30.5800       411
  30.6000       424
  30.6200       464
  30.6400       416
  30.6600       415
  30.6800       454
  30.7000       420
  30.7200       413
  30.7400       446
  30.7600       412
  30.7800       417
  30.8000       477
  30.8200       413
  30.8400       421
  30.8600       405
  30.8800       420
  30.9000       457
  30.9200       430
  30.9400       426
  30.9600       486
  30.9800       425
  31.0000       449
  31.0200       377
  31.0400       432
  31.0600       411
  31.0800       463
  31.1000       407
  31.1200       449
  31.1400       435
  31.1600       445
  31.1800       461
  31.2000       406
  31.2200       428
  31.2400       413
  31.2600       427
  31.2800       459
  31.3000       442
  31.3200       403
  31.3400       433
  31.3600       418
  31.3800       394
  31.4000       447
  31.4200       436
  31.4400       440
  31.4600       440
  31.4800       445
  31.5000       446
  31.5200       421
  31.5400       407
  31.5600       415
  31.5800       438
  31.6000       447
  31.6200       441
  31.6400       454
  31.6600       421
  31.6800       387
  31.7000       437
  31.7200       430
  31.7400       463
  31.7600       427
  31.7800       427
  31.8000       448
  31.8200       424
  31.8400       440
  31.8600       435
  31.8800       448
  31.9000       405
  31.9200       427
  31.9400       439
  31.9600       460
  31.9800       440
  32.0000       468
  32.0200       459
  32.0400       436
  32.0600       459
  32.0800       477
  32.1000       433
  32.1200       418
  32.1400       437
  32.1600       418
  32.1800       453
  32.2000       436
  32.2200       460
  32.2400       461
  32.2600       425
  32.2800       433
  32.3000       439
  32.3200       439
  32.3400       427
  32.3600       414
  32.3800       454
  32.4000       435
  32.4200       456
  32.4400       439
  32.4600       425
  32.4800       444
  32.5000       458
  32.5200       430
  32.5400       420
  32.5600       431
  32.5800       417
  32.6000       439
  32.6200       434
  32.6400       447
  32.6600       424
  32.6800       396
  32.7000       401
  32.7200       471
  32.7400       458
  32.7600       430
  32.7800       441
  32.8000       458
  32.8200       441
  32.8400       471
  32.8600       432
  32.8800       456
  32.9000       418
  32.9200       422
  32.9400       471
  32.9600       388
  32.9800       465
  33.0000       461
  33.0200       419
  33.0400       450
  33.0600       444
  33.0800       386
  33.1000       424
  33.1200       460
  33.1400       457
  33.1600       437
  33.1800       427
  33.2000       430
  33.2200       463
  33.2400       432
  33.2600       429
  33.2800       473
  33.3000       413
  33.3200       442
  33.3400       442
  33.3600       453
  33.3800       467
  33.4000       451
  33.4200       482
  33.4400       444
  33.4600       441
  33.4800       463
  33.5000       440
  33.5200       437
  33.5400       479
  33.5600       462
  33.5800       414
  33.6000       492
  33.6200       456
  33.6400       439
  33.6600       435
  33.6800       445
  33.7000       417
  33.7200       424
  33.7400       422
  33.7600       420
  33.7800       438
  33.8000       438
  33.8200       443
  33.8400       419
  33.8600       414
  33.8800       419
  33.9000       455
  33.9200       423
  33.9400       407
  33.9600       389
  33.9800       423
  34.0000       465
  34.0200       398
  34.0400       415
  34.0600       417
  34.0800       406
  34.1000       438
  34.1200       431
  34.1400       413
  34.1600       401
  34.1800       449
  34.2000       401
  34.2200       390
  34.2400       450
  34.2600       429
  34.2800       430
  34.3000       436
  34.3200       423
  34.3400       390
  34.3600       416
  34.3800       438
  34.4000       419
  34.4200       456
  34.4400       410
  34.4600       423
  34.4800       450
  34.5000       418
  34.5200       422
  34.5400       446
  34.5600       382
  34.5800       455
  34.6000       420
  34.6200       404
  34.6400       449
  34.6600       421
  34.6800       433
  34.7000       392
  34.7200       451
  34.7400       417
  34.7600       438
  34.7800       391
  34.8000       430
  34.8200       417
  34.8400       406
  34.8600       426
  34.8800       403
  34.9000       444
  34.9200       412
  34.9400       402
  34.9600       439
  34.9800       378
  35.0000       413
  35.0200       415
  35.0400       413
  35.0600       417
  35.0800       385
  35.1000       392
  35.1200       402
  35.1400       420
  35.1600       436
  35.1800       434
  35.2000       441
  35.2200       411
  35.2400       393
  35.2600       397
  35.2800       413
  35.3000       444
  35.3200       401
  35.3400       431
  35.3600       420
  35.3800       408
  35.4000       446
  35.4200       413
  35.4400       414
  35.4600       399
  35.4800       439
  35.5000       391
  35.5200       415
  35.5400       415
  35.5600       424
  35.5800       395
  35.6000       376
  35.6200       418
  35.6400       431
  35.6600       461
  35.6800       410
  35.7000       387
  35.7200       410
  35.7400       422
  35.7600       413
  35.7800       475
  35.8000       395
  35.8200       397
  35.8400       423
  35.8600       404
  35.8800       426
  35.9000       401
  35.9200       424
  35.9400       415
  35.9600       435
  35.9800       434
  36.0000       436
  36.0200       438
  36.0400       410
  36.0600       461
  36.0800       462
  36.1000       430
  36.1200       440
  36.1400       452
  36.1600       458
  36.1800       467
  36.2000       453
  36.2200       462
  36.2400       492
  36.2600       496
  36.2800       504
  36.3000       484
  36.3200       477
  36.3400       522
  36.3600       522
  36.3800       538
  36.4000       507
  36.4200       511
  36.4400       496
  36.4600       496
  36.4800       489
  36.5000       506
  36.5200       522
  36.5400       477
  36.5600       502
  36.5800       473
  36.6000       461
  36.6200       453
  36.6400       484
  36.6600       400
  36.6800       440
  36.7000       421
  36.7200       444
  36.7400       439
  36.7600       414
  36.7800       435
  36.8000       459
  36.8200       408
  36.8400       419
  36.8600       421
  36.8800       416
  36.9000       410
  36.9200       426
  36.9400       445
  36.9600       415
  36.9800       415
  37.0000       411
  37.0200       431
  37.0400       408
  37.0600       390
  37.0800       394
  37.1000       425
  37.1200       411
  37.1400       399
  37.1600       456
  37.1800       430
  37.2000       433
  37.2200       411
  37.2400       393
  37.2600       403
  37.2800       394
  37.3000       386
  37.3200       415
  37.3400       429
  37.3600       423
  37.3800       435
  37.4000       402
  37.4200       391
  37.4400       424
  37.4600       440
  37.4800       438
  37.5000       422
  37.5200       439
  37.5400       408
  37.5600       428
  37.5800       415
  37.6000       396
  37.6200       417
  37.6400       401
  37.6600       443
  37.6800       420
  37.7000       417
  37.7200       412
  37.7400       384
  37.7600       419
  37.7800       399
  37.8000       434
  37.8200       461
  37.8400       438
  37.8600       411
  37.8800       399
  37.9000       422
  37.9200       393
  37.9400       444
  37.9600       453
  37.9800       424
  38.0000       440
  38.0200       446
  38.0400       385
  38.0600       414
  38.0800       406
  38.1000       402
  38.1200       398
  38.1400       437
  38.1600       411
  38.1800       397
  38.2000       426
  38.2200       432
  38.2400       439
  38.2600       409
  38.2800       438
  38.3000       412
  38.3200       419
  38.3400       404
  38.3600       432
  38.3800       492
  38.4000       437
  38.4200       454
  38.4400       464
  38.4600       420
  38.4800       451
  38.5000       444
  38.5200       428
  38.5400       449
  38.5600       437
  38.5800       437
  38.6000       425
  38.6200       458
  38.6400       498
  38.6600       468
  38.6800       440
  38.7000       470
  38.7200       476
  38.7400       514
  38.7600       456
  38.7800       519
  38.8000       477
  38.8200       487
  38.8400       502
  38.8600       454
  38.8800       486
  38.9000       479
  38.9200       499
  38.9400       488
  38.9600       483
  38.9800       501
  39.0000       516
  39.0200       488
  39.0400       511
  39.0600       484
  39.0800       520
  39.1000       498
  39.1200       496
  39.1400       504
  39.1600       523
  39.1800       496
  39.2000       534
  39.2200       500
  39.2400       514
  39.2600       512
  39.2800       505
  39.3000       467
  39.3200       485
  39.3400       561
  39.3600       536
  39.3800       540
  39.4000       505
  39.4200       533
  39.4400       537
  39.4600       530
  39.4800       551
  39.5000       563
  39.5200       546
  39.5400       569
  39.5600       573
  39.5800       564
  39.6000       546
  39.6200       569
  39.6400       570
  39.6600       635
  39.6800       569
  39.7000       613
  39.7200       601
  39.7400       635
  39.7600       680
  39.7800       705
  39.8000       673
  39.8200       720
  39.8400       764
  39.8600       722
  39.8800       884
  39.9000       850
  39.9200       898
  39.9400       947
  39.9600      1016
  39.9800      1022
  40.0000      1102
  40.0200      1158
  40.0400      1339
  40.0600      1410
  40.0800      1566
  40.1000      1789
  40.1200      1901
  40.1400      1981
  40.1600      2222
  40.1800      2346
  40.2000      2657
  40.2200      2779
  40.2400      3045
  40.2600      3269
  40.2800      3455
  40.3000      3640
  40.3200      3966
  40.3400      4081
  40.3600      4360
  40.3800      4674
  40.4000      4725
  40.4200      4970
  40.4400      5275
  40.4600      5297
  40.4800      5140
  40.5000      5146
  40.5200      4988
  40.5400      4713
  40.5600      4374
  40.5800      4082
  40.6000      3839
  40.6200      3509
  40.6400      3061
  40.6600      2823
  40.6800      2485
  40.7000      2091
  40.7200      2040
  40.7400      1650
  40.7600      1550
  40.7800      1360
  40.8000      1257
  40.8200      1161
  40.8400      1054
  40.8600       973
  40.8800       955
  40.9000       880
  40.9200       826
  40.9400       759
  40.9600       751
  40.9800       735
  41.0000       687
  41.0200       671
  41.0400       712
  41.0600       646
  41.0800       640
  41.1000       660
  41.1200       606
  41.1400       576
  41.1600       564
  41.1800       558
  41.2000       521
  41.2200       569
  41.2400       550
  41.2600       578
  41.2800       574
  41.3000       589
  41.3200       546
  41.3400       507
  41.3600       558
  41.3800       520
  41.4000       524
  41.4200       477
  41.4400       523
  41.4600       490
  41.4800       520
  41.5000       487
  41.5200       509
  41.5400       499
  41.5600       487
  41.5800       470
  41.6000       499
  41.6200       476
  41.6400       459
  41.6600       491
  41.6800       506
  41.7000       485
  41.7200       471
  41.7400       456
  41.7600       441
  41.7800       431
  41.8000       467
  41.8200       465
  41.8400       465
  41.8600       460
  41.8800       466
  41.9000       481
  41.9200       478
  41.9400       488
  41.9600       475
  41.9800       489
  42.0000       438
  42.0200       444
  42.0400       476
  42.0600       479
  42.0800       478
  42.1000       459
  42.1200       440
  42.1400       499
  42.1600       504
  42.1800       497
  42.2000       520
  42.2200       472
  42.2400       457
  42.2600       498
  42.2800       477
  42.3000       466
  42.3200       424
  42.3400       470
  42.3600       511
  42.3800       491
  42.4000       475
  42.4200       454
  42.4400       473
  42.4600       485
  42.4800       484
  42.5000       483
  42.5200       494
  42.5400       447
  42.5600       497
  42.5800       442
  42.6000       495
  42.6200       433
  42.6400       419
  42.6600       476
  42.6800       470
  42.7000       454
  42.7200       459
  42.7400       462
  42.7600       434
  42.7800       466
  42.8000       473
  42.8200       460
  42.8400       456
  42.8600       463
  42.8800       479
  42.9000       438
  42.9200       487
  42.9400       461
  42.9600       443
  42.9800       474
  43.0000       440
  43.0200       460
  43.0400       451
  43.0600       440
  43.0800       444
  43.1000       456
  43.1200       439
  43.1400       425
  43.1600       442
  43.1800       421
  43.2000       427
  43.2200       422
  43.2400       448
  43.2600       438
  43.2800       444
  43.3000       463
  43.3200       454
  43.3400       461
  43.3600       423
  43.3800       430
  43.4000       444
  43.4200       442
  43.4400       409
  43.4600       450
  43.4800       433
  43.5000       437
  43.5200       427
  43.5400       451
  43.5600       416
  43.5800       450
  43.6000       427
  43.6200       459
  43.6400       437
  43.6600       435
  43.6800       442
  43.7000       464
  43.7200       454
  43.7400       433
  43.7600       444
  43.7800       424
  43.8000       464
  43.8200       462
  43.8400       467
  43.8600       449
  43.8800       440
  43.9000       402
  43.9200       436
  43.9400       439
  43.9600       431
  43.9800       438
  44.0000       448
  44.0200       427
  44.0400       441
  44.0600       440
  44.0800       458
  44.1000       445
  44.1200       415
  44.1400       450
  44.1600       460
  44.1800       447
  44.2000       458
  44.2200       439
  44.2400       421
  44.2600       430
  44.2800       461
  44.3000       476
  44.3200       458
  44.3400       444
  44.3600       427
  44.3800       455
  44.4000       459
  44.4200       429
  44.4400       432
  44.4600       465
  44.4800       449
  44.5000       428
  44.5200       450
  44.5400       437
  44.5600       460
  44.5800       456
  44.6000       434
  44.6200       445
  44.6400       430
  44.6600       443
  44.6800       437
  44.7000       462
  44.7200       451
  44.7400       470
  44.7600       442
  44.7800       476
  44.8000       439
  44.8200       473
  44.8400       441
  44.8600       468
  44.8800       448
  44.9000       487
  44.9200       448
  44.9400       460
  44.9600       482
  44.9800       488
  45.0000       429
  45.0200       407
  45.0400       490
  45.0600       480
  45.0800       481
  45.1000       465
  45.1200       462
  45.1400       481
  45.1600       492
  45.1800       445
  45.2000       446
  45.2200       502
  45.2400       447
  45.2600       456
  45.2800       503
  45.3000       459
  45.3200       445
  45.3400       480
  45.3600       470
  45.3800       526
  45.4000       531
  45.4200       500
  45.4400       467
  45.4600       505
  45.4800       477
  45.5000       445
  45.5200       484
  45.5400       460
  45.5600       459
  45.5800       533
  45.6000       450
  45.6200       501
  45.6400       525
  45.6600       491
  45.6800       518
  45.7000       514
  45.7200       505
  45.7400       464
  45.7600       493
  45.7800       507
  45.8000       499
  45.8200       508
  45.8400       493
  45.8600       530
  45.8800       486
  45.9000       533
  45.9200       532
  45.9400       535
  45.9600       544
  45.9800       557
  46.0000       531
  46.0200       538
  46.0400       574
  46.0600       576
  46.0800       545
  46.1000       598
  46.1200       548
  46.1400       602
  46.1600       615
  46.1800       621
  46.2000       651
  46.2200       622
  46.2400       620
  46.2600       673
  46.2800       664
  46.3000       684
  46.3200       718
  46.3400       686
  46.3600       678
  46.3800       727
  46.4000       795
  46.4200       760
  46.4400       765
  46.4600       829
  46.4800       923
  46.5000       861
  46.5200       892
  46.5400       884
  46.5600       995
  46.5800       987
  46.6000       986
  46.6200      1023
  46.6400      1141
  46.6600      1187
  46.6800      1221
  46.7000      1252
  46.7200      1334
  46.7400      1396
  46.7600      1474
  46.7800      1521
  46.8000      1482
  46.8200      1569
  46.8400      1758
  46.8600      1735
  46.8800      1825
  46.9000      1950
  46.9200      2047
  46.9400      2141
  46.9600      2120
  46.9800      2228
  47.0000      2175
  47.0200      2310
  47.0400      2375
  47.0600      2378
  47.0800      2422
  47.1000      2350
  47.1200      2289
  47.1400      2312
  47.1600      2161
  47.1800      2119
  47.2000      2099
  47.2200      1957
  47.2400      1781
  47.2600      1685
  47.2800      1553
  47.3000      1449
  47.3200      1295
  47.3400      1303
  47.3600      1231
  47.3800      1077
  47.4000       998
  47.4200       966
  47.4400       871
  47.4600       897
  47.4800       835
  47.5000       750
  47.5200       712
  47.5400       726
  47.5600       695
  47.5800       621
  47.6000       627
  47.6200       622
  47.6400       606
  47.6600       672
  47.6800       623
  47.7000       574
  47.7200       558
  47.7400       522
  47.7600       592
  47.7800       536
  47.8000       492
  47.8200       562
  47.8400       493
  47.8600       529
  47.8800       479
  47.9000       483
  47.9200       496
  47.9400       490
  47.9600       489
  47.9800       500
  48.0000       506
  48.0200       490
  48.0400       502
  48.0600       503
  48.0800       448
  48.1000       496
  48.1200       454
  48.1400       492
  48.1600       501
  48.1800       471
  48.2000       460
  48.2200       448
  48.2400       457
  48.2600       449
  48.2800       462
  48.3000       466
  48.3200       459
  48.3400       457
  48.3600       476
  48.3800       423
  48.4000       457
  48.4200       416
  48.4400       461
  48.4600       424
  48.4800       499
  48.5000       445
  48.5200       474
  48.5400       431
  48.5600       461
  48.5800       479
  48.6000       448
  48.6200       454
  48.6400       434
  48.6600       456
  48.6800       414
  48.7000       426
  48.7200       449
  48.7400       473
  48.7600       464
  48.7800       463
  48.8000       413
  48.8200       456
  48.8400       443
  48.8600       484
  48.8800       472
  48.9000       467
  48.9200       420
  48.9400       418
  48.9600       420
  48.9800       434
  49.0000       435
  49.0200       471
  49.0400       427
  49.0600       419
  49.0800       426
  49.1000       447
  49.1200       451
  49.1400       462
  49.1600       470
  49.1800       435
  49.2000       446
  49.2200       428
  49.2400       412
  49.2600       437
  49.2800       444
  49.3000       424
  49.3200       454
  49.3400       466
  49.3600       404
  49.3800       437
  49.4000       448
  49.4200       433
  49.4400       422
  49.4600       453
  49.4800       425
  49.5000       397
  49.5200       431
  49.5400       417
  49.5600       435
  49.5800       438
  49.6000       443
  49.6200       423
  49.6400       451
  49.6600       432
  49.6800       422
  49.7000       434
  49.7200       433
  49.7400       410
  49.7600       412
  49.7800       422
  49.8000       463
  49.8200       498
  49.8400       443
  49.8600       413
  49.8800       422
  49.9000       425
  49.9200       446
  49.9400       433
  49.9600       436
  49.9800       442
  50.0000       436
  50.0200       414
  50.0400       414
  50.0600       439
  50.0800       452
  50.1000       385
  50.1200       451
  50.1400       459
  50.1600       482
  50.1800       475
  50.2000       451
  50.2200       411
  50.2400       432
  50.2600       434
  50.2800       404
  50.3000       399
  50.3200       460
  50.3400       412
  50.3600       414
  50.3800       432
  50.4000       402
  50.4200       420
  50.4400       425
  50.4600       448
  50.4800       421
  50.5000       409
  50.5200       403
  50.5400       417
  50.5600       434
  50.5800       411
  50.6000       465
  50.6200       413
  50.6400       424
  50.6600       437
  50.6800       424
  50.7000       423
  50.7200       436
  50.7400       454
  50.7600       447
  50.7800       448
  50.8000       461
  50.8200       456
  50.8400       438
  50.8600       474
  50.8800       448
  50.9000       453
  50.9200       464
  50.9400       449
  50.9600       415
  50.9800       431
  51.0000       438
  51.0200       445
  51.0400       405
  51.0600       428
  51.0800       423
  51.1000       477
  51.1200       451
  51.1400       449
  51.1600       424
  51.1800       473
  51.2000       446
  51.2200       419
  51.2400       503
  51.2600       451
  51.2800       442
  51.3000       447
  51.3200       433
  51.3400       416
  51.3600       438
  51.3800       429
  51.4000       462
  51.4200       445
  51.4400       442
  51.4600       470
  51.4800       441
  51.5000       447
  51.5200       456
  51.5400       444
  51.5600       467
  51.5800       423
  51.6000       440
  51.6200       454
  51.6400       473
  51.6600       464
  51.6800       445
  51.7000       446
  51.7200       432
  51.7400       451
  51.7600       492
  51.7800       458
  51.8000       433
  51.8200       463
  51.8400       418
  51.8600       396
  51.8800       431
  51.9000       457
  51.9200       453
  51.9400       435
  51.9600       434
  51.9800       472
  52.0000       474
  52.0200       487
  52.0400       447
  52.0600       436
  52.0800       459
  52.1000       437
  52.1200       459
  52.1400       445
  52.1600       461
  52.1800       456
  52.2000       463
  52.2200       397
  52.2400       455
  52.2600       420
  52.2800       478
  52.3000       419
  52.3200       420
  52.3400       444
  52.3600       443
  52.3800       457
  52.4000       458
  52.4200       467
  52.4400       477
  52.4600       420
  52.4800       411
  52.5000       441
  52.5200       421
  52.5400       429
  52.5600       467
  52.5800       483
  52.6000       436
  52.6200       433
  52.6400       434
  52.6600       450
  52.6800       466
  52.7000       425
  52.7200       425
  52.7400       432
  52.7600       453
  52.7800       450
  52.8000       460
  52.8200       427
  52.8400       424
  52.8600       441
  52.8800       460
  52.9000       406
  52.9200       467
  52.9400       436
  52.9600       421
  52.9800       468
  53.0000       456
  53.0200       430
  53.0400       417
  53.0600       448
  53.0800       428
  53.1000       456
  53.1200       475
  53.1400       442
  53.1600       451
  53.1800       437
  53.2000       433
  53.2200       441
  53.2400       444
  53.2600       439
  53.2800       434
  53.3000       404
  53.3200       483
  53.3400       439
  53.3600       450
  53.3800       423
  53.4000       460
  53.4200       443
  53.4400       453
  53.4600       442
  53.4800       489
  53.5000       447
  53.5200       440
  53.5400       433
  53.5600       423
  53.5800       408
  53.6000       447
  53.6200       421
  53.6400       432
  53.6600       411
  53.6800       447
  53.7000       460
  53.7200       432
  53.7400       435
  53.7600       476
  53.7800       402
  53.8000       445
  53.8200       424
  53.8400       434
  53.8600       439
  53.8800       474
  53.9000       431
  53.9200       422
  53.9400       438
  53.9600       422
  53.9800       500
  54.0000       417
  54.0200       441
  54.0400       475
  54.0600       398
  54.0800       427
  54.1000       454
  54.1200       444
  54.1400       486
  54.1600       457
  54.1800       437
  54.2000       466
  54.2200       472
  54.2400       462
  54.2600       468
  54.2800       420
  54.3000       409
  54.3200       482
  54.3400       447
  54.3600       448
  54.3800       450
  54.4000       424
  54.4200       421
  54.4400       413
  54.4600       449
  54.4800       482
  54.5000       445
  54.5200       407
  54.5400       410
  54.5600       469
  54.5800       448
  54.6000       436
  54.6200       439
  54.6400       459
  54.6600       442
  54.6800       438
  54.7000       458
  54.7200       429
  54.7400       460
  54.7600       464
  54.7800       459
  54.8000       472
  54.8200       459
  54.8400       443
  54.8600       454
  54.8800       459
  54.9000       465
  54.9200       439
  54.9400       451
  54.9600       448
  54.9800       449
  55.0000       468
  55.0200       441
  55.0400       417
  55.0600       439
  55.0800       427
  55.1000       456
  55.1200       462
  55.1400       450
  55.1600       482
  55.1800       431
  55.2000       459
  55.2200       436
  55.2400       441
  55.2600       453
  55.2800       426
  55.3000       453
  55.3200       473
  55.3400       458
  55.3600       475
  55.3800       451
  55.4000       461
  55.4200       456
  55.4400       456
  55.4600       443
  55.4800       496
  55.5000       440
  55.5200       468
  55.5400       419
  55.5600       430
  55.5800       418
  55.6000       444
  55.6200       455
  55.6400       455
  55.6600       437
  55.6800       436
  55.7000       468
  55.7200       410
  55.7400       431
  55.7600       427
  55.7800       468
  55.8000       469
  55.8200       435
  55.8400       449
  55.8600       447
  55.8800       469
  55.9000       438
  55.9200       427
  55.9400       473
  55.9600       449
  55.9800       428
  56.0000       467
  56.0200       451
  56.0400       450
  56.0600       459
  56.0800       454
  56.1000       452
  56.1200       429
  56.1400       469
  56.1600       448
  56.1800       435
  56.2000       432
  56.2200       432
  56.2400       460
  56.2600       475
  56.2800       452
  56.3000       471
  56.3200       417
  56.3400       468
  56.3600       400
  56.3800       458
  56.4000       473
  56.4200       441
  56.4400       430
  56.4600       449
  56.4800       430
  56.5000       488
  56.5200       411
  56.5400       439
  56.5600       469
  56.5800       432
  56.6000       409
  56.6200       472
  56.6400       434
  56.6600       514
  56.6800       432
  56.7000       459
  56.7200       445
  56.7400       442
  56.7600       490
  56.7800       432
  56.8000       451
  56.8200       452
  56.8400       474
  56.8600       502
  56.8800       454
  56.9000       447
  56.9200       487
  56.9400       453
  56.9600       467
  56.9800       438
  57.0000       493
  57.0200       433
  57.0400       452
  57.0600       461
  57.0800       495
  57.1000       456
  57.1200       415
  57.1400       470
  57.1600       449
  57.1800       416
  57.2000       402
  57.2200       435
  57.2400       435
  57.2600       464
  57.2800       461
  57.3000       462
  57.3200       438
  57.3400       441
  57.3600       454
  57.3800       473
  57.4000       417
  57.4200       473
  57.4400       464
  57.4600       442
  57.4800       442
  57.5000       441
  57.5200       481
  57.5400       445
  57.5600       476
  57.5800       457
  57.6000       484
  57.6200       417
  57.6400       460
  57.6600       409
  57.6800       452
  57.7000       439
  57.7200       459
  57.7400       438
  57.7600       408
  57.7800       452
  57.8000       439
  57.8200       429
  57.8400       430
  57.8600       476
  57.8800       456
  57.9000       419
  57.9200       473
  57.9400       450
  57.9600       435
  57.9800       445
  58.0000       444
  58.0200       436
  58.0400       449
  58.0600       459
  58.0800       446
  58.1000       466
  58.1200       458
  58.1400       433
  58.1600       466
  58.1800       441
  58.2000       485
  58.2200       441
  58.2400       467
  58.2600       411
  58.2800       460
  58.3000       427
  58.3200       432
  58.3400       429
  58.3600       444
  58.3800       467
  58.4000       447
  58.4200       482
  58.4400       438
  58.4600       410
  58.4800       480
  58.5000       454
  58.5200       425
  58.5400       464
  58.5600       477
  58.5800       494
  58.6000       451
  58.6200       463
  58.6400       450
  58.6600       435
  58.6800       423
  58.7000       496
  58.7200       441
  58.7400       466
  58.7600       428
  58.7800       490
  58.8000       467
  58.8200       452
  58.8400       476
  58.8600       462
  58.8800       461
  58.9000       451
  58.9200       457
  58.9400       457
  58.9600       462
  58.9800       495
  59.0000       458
  59.0200       431
  59.0400       481
  59.0600       449
  59.0800       451
  59.1000       467
  59.1200       478
  59.1400       474
  59.1600       487
  59.1800       468
  59.2000       425
  59.2200       450
  59.2400       475
  59.2600       421
  59.2800       446
  59.3000       449
  59.3200       434
  59.3400       477
  59.3600       465
  59.3800       468
  59.4000       434
  59.4200       432
  59.4400       454
  59.4600       455
  59.4800       529
  59.5000       471
  59.5200       485
  59.5400       463
  59.5600       456
  59.5800       426
  59.6000       473
  59.6200       435
  59.6400       429
  59.6600       459
  59.6800       447
  59.7000       456
  59.7200       465
  59.7400       489
  59.7600       440
  59.7800       455
  59.8000       488
  59.8200       416
  59.8400       462
  59.8600       513
  59.8800       491
  59.9000       440
  59.9200       467
  59.9400       475
  59.9600       440
  59.9800       447
  60.0000       427
  60.0200       480
  60.0400       468
  60.0600       430
  60.0800       456
  60.1000       494
  60.1200       463
  60.1400       425
  60.1600       454
  60.1800       472
  60.2000       460
  60.2200       467
  60.2400       461
  60.2600       473
  60.2800       461
  60.3000       456
  60.3200       436
  60.3400       461
  60.3600       486
  60.3800       462
  60.4000       450
  60.4200       503
  60.4400       479
  60.4600       414
  60.4800       466
  60.5000       462
  60.5200       448
  60.5400       437
  60.5600       460
  60.5800       475
  60.6000       467
  60.6200       486
  60.6400       474
  60.6600       465
  60.6800       494
  60.7000       475
  60.7200       446
  60.7400       455
  60.7600       472
  60.7800       479
  60.8000       449
  60.8200       457
  60.8400       467
  60.8600       442
  60.8800       462
  60.9000       456
  60.9200       449
  60.9400       467
  60.9600       462
  60.9800       462
  61.0000       480
  61.0200       447
  61.0400       479
  61.0600       439
  61.0800       436
  61.1000       500
  61.1200       478
  61.1400       514
  61.1600       462
  61.1800       445
  61.2000       468
  61.2200       489
  61.2400       488
  61.2600       495
  61.2800       443
  61.3000       471
  61.3200       473
  61.3400       435
  61.3600       490
  61.3800       458
  61.4000       520
  61.4200       511
  61.4400       477
  61.4600       462
  61.4800       492
  61.5000       473
  61.5200       471
  61.5400       469
  61.5600       446
  61.5800       452
  61.6000       491
  61.6200       469
  61.6400       469
  61.6600       518
  61.6800       432
  61.7000       454
  61.7200       471
  61.7400       453
  61.7600       460
  61.7800       475
  61.8000       517
  61.8200       459
  61.8400       484
  61.8600       458
  61.8800       460
  61.9000       446
  61.9200       437
  61.9400       471
  61.9600       464
  61.9800       430
  62.0000       468
  62.0200       475
  62.0400       485
  62.0600       473
  62.0800       464
  62.1000       470
  62.1200       444
  62.1400       461
  62.1600       475
  62.1800       446
  62.2000       448
  62.2200       426
  62.2400       471
  62.2600       455
  62.2800       471
  62.3000       474
  62.3200       453
  62.3400       495
  62.3600       443
  62.3800       470
  62.4000       454
  62.4200       460
  62.4400       461
  62.4600       457
  62.4800       425
  62.5000       445
  62.5200       456
  62.5400       420
  62.5600       442
  62.5800       433
  62.6000       445
  62.6200       506
  62.6400       494
  62.6600       465
  62.6800       464
  62.7000       470
  62.7200       439
  62.7400       481
  62.7600       465
  62.7800       483
  62.8000       460
  62.8200       482
  62.8400       468
  62.8600       441
  62.8800       463
  62.9000       459
  62.9200       517
  62.9400       452
  62.9600       473
  62.9800       483
  63.0000       489
  63.0200       458
  63.0400       519
  63.0600       467
  63.0800       476
  63.1000       467
  63.1200       467
  63.1400       446
  63.1600       472
  63.1800       432
  63.2000       464
  63.2200       424
  63.2400       452
  63.2600       488
  63.2800       473
  63.3000       457
  63.3200       495
  63.3400       464
  63.3600       443
  63.3800       469
  63.4000       461
  63.4200       438
  63.4400       454
  63.4600       472
  63.4800       422
  63.5000       468
  63.5200       469
  63.5400       458
  63.5600       461
  63.5800       453
  63.6000       428
  63.6200       448
  63.6400       451
  63.6600       467
  63.6800       465
  63.7000       499
  63.7200       536
  63.7400       464
  63.7600       452
  63.7800       456
  63.8000       466
  63.8200       441
  63.8400       454
  63.8600       475
  63.8800       455
  63.9000       463
  63.9200       428
  63.9400       474
  63.9600       444
  63.9800       472
  64.0000       439
  64.0200       482
  64.0400       480
  64.0600       457
  64.0800       492
  64.1000       461
  64.1200       474
  64.1400       425
  64.1600       431
  64.1800       464
  64.2000       439
  64.2200       465
  64.2400       467
  64.2600       472
  64.2800       440
  64.3000       486
  64.3200       456
  64.3400       479
  64.3600       426
  64.3800       451
  64.4000       448
  64.4200       446
  64.4400       429
  64.4600       428
  64.4800       470
  64.5000       439
  64.5200       466
  64.5400       461
  64.5600       461
  64.5800       452
  64.6000       496
  64.6200       465
  64.6400       503
  64.6600       475
  64.6800       472
  64.7000       466
  64.7200       484
  64.7400       429
  64.7600       418
  64.7800       479
  64.8000       453
  64.8200       476
  64.8400       484
  64.8600       426
  64.8800       446
  64.9000       437
  64.9200       502
  64.9400       498
  64.9600       440
  64.9800       468
  65.0000       453
  65.0200       490
  65.0400       479
  65.0600       471
  65.0800       444
  65.1000       435
  65.1200       470
  65.1400       455
  65.1600       448
  65.1800       448
  65.2000       440
  65.2200       476
  65.2400       500
  65.2600       504
  65.2800       465
  65.3000       464
  65.3200       439
  65.3400       484
  65.3600       471
  65.3800       503
  65.4000       510
  65.4200       476
  65.4400       455
  65.4600       456
  65.4800       482
  65.5000       423
  65.5200       469
  65.5400       479
  65.5600       458
  65.5800       504
  65.6000       465
  65.6200       432
  65.6400       485
  65.6600       465
  65.6800       477
  65.7000       455
  65.7200       481
  65.7400       480
  65.7600       444
  65.7800       467
  65.8000       470
  65.8200       480
  65.8400       469
  65.8600       468
  65.8800       469
  65.9000       471
  65.9200       491
  65.9400       479
  65.9600       497
  65.9800       426
  66.0000       485
  66.0200       476
  66.0400       473
  66.0600       474
  66.0800       476
  66.1000       479
  66.1200       479
  66.1400       453
  66.1600       494
  66.1800       478
  66.2000       458
  66.2200       473
  66.2400       463
  66.2600       481
  66.2800       484
  66.3000       472
  66.3200       519
  66.3400       523
  66.3600       492
  66.3800       486
  66.4000       442
  66.4200       496
  66.4400       479
  66.4600       523
  66.4800       448
  66.5000       473
  66.5200       500
  66.5400       506
  66.5600       489
  66.5800       468
  66.6000       498
  66.6200       500
  66.6400       483
  66.6600       496
  66.6800       502
  66.7000       488
  66.7200       519
  66.7400       527
  66.7600       550
  66.7800       503
  66.8000       545
  66.8200       495
  66.8400       497
  66.8600       478
  66.8800       485
  66.9000       494
  66.9200       485
  66.9400       490
  66.9600       490
  66.9800       505
  67.0000       499
  67.0200       497
  67.0400       504
  67.0600       530
  67.0800       511
  67.1000       451
  67.1200       470
  67.1400       478
  67.1600       481
  67.1800       503
  67.2000       458
  67.2200       522
  67.2400       458
  67.2600       500
  67.2800       516
  67.3000       512
  67.3200       456
  67.3400       482
  67.3600       510
  67.3800       546
  67.4000       538
  67.4200       504
  67.4400       499
  67.4600       506
  67.4800       493
  67.5000       491
  67.5200       532
  67.5400       480
  67.5600       509
  67.5800       531
  67.6000       522
  67.6200       495
  67.6400       510
  67.6600       491
  67.6800       536
  67.7000       550
  67.7200       546
  67.7400       572
  67.7600       531
  67.7800       482
  67.8000       521
  67.8200       566
  67.8400       559
  67.8600       550
  67.8800       538
  67.9000       581
  67.9200       561
  67.9400       521
  67.9600       610
  67.9800       548
  68.0000       544
  68.0200       537
  68.0400       590
  68.0600       613
  68.0800       594
  68.1000       623
  68.1200       619
  68.1400       633
  68.1600       650
  68.1800       674
  68.2000       649
  68.2200       710
  68.2400       692
  68.2600       717
  68.2800       796
  68.3000       738
  68.3200       786
  68.3400       852
  68.3600       804
  68.3800       889
  68.4000       916
  68.4200       906
  68.4400       968
  68.4600       940
  68.4800      1019
  68.5000      1030
  68.5200      1081
  68.5400      1113
  68.5600      1154
  68.5800      1148
  68.6000      1155
  68.6200      1156
  68.6400      1323
  68.6600      1262
  68.6800      1296
  68.7000      1371
  68.7200      1415
  68.7400      1333
  68.7600      1392
  68.7800      1372
  68.8000      1418
  68.8200      1412
  68.8400      1335
  68.8600      1391
  68.8800      1438
  68.9000      1339
  68.9200      1328
  68.9400      1288
  68.9600      1199
  68.9800      1202
  69.0000      1173
  69.0200      1152
  69.0400      1050
  69.0600      1015
  69.0800      1049
  69.1000       981
  69.1200       937
  69.1400       936
  69.1600       826
  69.1800       853
  69.2000       818
  69.2200       799
  69.2400       710
  69.2600       733
  69.2800       707
  69.3000       695
  69.3200       656
  69.3400       654
  69.3600       617
  69.3800       623
  69.4000       588
  69.4200       608
  69.4400       613
  69.4600       541
  69.4800       576
  69.5000       578
  69.5200       521
  69.5400       555
  69.5600       583
  69.5800       526
  69.6000       590
  69.6200       548
  69.6400       512
  69.6600       519
  69.6800       525
  69.7000       514
  69.7200       534
  69.7400       522
  69.7600       530
  69.7800       494
  69.8000       520
  69.8200       502
  69.8400       483
  69.8600       464
  69.8800       477
  69.9000       490
  69.9200       485
  69.9400       515
  69.9600       493
  69.9800       532
  70.0000       538
  70.0200       514
  70.0400       530
  70.0600       533
  70.0800       484
  70.1000       500
  70.1200       484
  70.1400       521
  70.1600       461
  70.1800       470
  70.2000       489
  70.2200       508
  70.2400       497
  70.2600       480
  70.2800       460
  70.3000       488
  70.3200       467
  70.3400       464
  70.3600       505
  70.3800       475
  70.4000       485
  70.4200       460
  70.4400       498
  70.4600       469
  70.4800       485
  70.5000       463
  70.5200       490
  70.5400       504
  70.5600       506
  70.5800       471
  70.6000       495
  70.6200       460
  70.6400       481
  70.6600       525
  70.6800       500
  70.7000       467
  70.7200       496
  70.7400       479
  70.7600       447
  70.7800       490
  70.8000       479
  70.8200       451
  70.8400       516
  70.8600       476
  70.8800       492
  70.9000       490
  70.9200       490
  70.9400       491
  70.9600       479
  70.9800       466
  71.0000       501
  71.0200       482
  71.0400       465
  71.0600       477
  71.0800       442
  71.1000       519
  71.1200       473
  71.1400       488
  71.1600       475
  71.1800       456
  71.2000       467
  71.2200       484
  71.2400       543
  71.2600       503
  71.2800       501
  71.3000       438
  71.3200       504
  71.3400       486
  71.3600       473
  71.3800       529
  71.4000       480
  71.4200       519
  71.4400       490
  71.4600       459
  71.4800       483
  71.5000       494
  71.5200       452
  71.5400       476
  71.5600       491
  71.5800       505
  71.6000       456
  71.6200       487
  71.6400       493
  71.6600       488
  71.6800       515
  71.7000       481
  71.7200       485
  71.7400       445
  71.7600       477
  71.7800       489
  71.8000       485
  71.8200       496
  71.8400       443
  71.8600       459
  71.8800       482
  71.9000       493
  71.9200       476
  71.9400       430
  71.9600       454
  71.9800       453
  72.0000       467
  72.0200       471
  72.0400       463
  72.0600       487
  72.0800       479
  72.1000       493
  72.1200       449
  72.1400       455
  72.1600       461
  72.1800       456
  72.2000       519
  72.2200       450
  72.2400       497
  72.2600       468
  72.2800       476
  72.3000       448
  72.3200       487
  72.3400       500
  72.3600       483
  72.3800       493
  72.4000       461
  72.4200       488
  72.4400       469
  72.4600       424
  72.4800       393
  72.5000       452
  72.5200       514
  72.5400       472
  72.5600       458
  72.5800       476
  72.6000       475
  72.6200       532
  72.6400       452
  72.6600       493
  72.6800       464
  72.7000       483
  72.7200       456
  72.7400       490
  72.7600       477
  72.7800       479
  72.8000       479
  72.8200       527
  72.8400       479
  72.8600       443
  72.8800       456
  72.9000       460
  72.9200       481
  72.9400       467
  72.9600       434
  72.9800       475
  73.0000       484
  73.0200       469
  73.0400       503
  73.0600       473
  73.0800       488
  73.1000       494
  73.1200       468
  73.1400       466
  73.1600       461
  73.1800       459
  73.2000       498
  73.2200       537
  73.2400       500
  73.2600       469
  73.2800       526
  73.3000       460
  73.3200       448
  73.3400       443
  73.3600       520
  73.3800       465
  73.4000       482
  73.4200       482
  73.4400       488
  73.4600       488
  73.4800       476
  73.5000       516
  73.5200       487
  73.5400       488
  73.5600       472
  73.5800       509
  73.6000       501
  73.6200       482
  73.6400       450
  73.6600       477
  73.6800       485
  73.7000       447
  73.7200       511
  73.7400       460
  73.7600       501
  73.7800       483
  73.8000       455
  73.8200       458
  73.8400       481
  73.8600       528
  73.8800       490
  73.9000       472
  73.9200       452
  73.9400       491
  73.9600       489
  73.9800       448
  74.0000       469
  74.0200       486
  74.0400       481
  74.0600       462
  74.0800       442
  74.1000       460
  74.1200       444
  74.1400       465
  74.1600       478
  74.1800       467
  74.2000       532
  74.2200       477
  74.2400       510
  74.2600       449
  74.2800       462
  74.3000       479
  74.3200       475
  74.3400       461
  74.3600       447
  74.3800       474
  74.4000       455
  74.4200       478
  74.4400       483
  74.4600       445
  74.4800       460
  74.5000       456
  74.5200       486
  74.5400       506
  74.5600       476
  74.5800       492
  74.6000       497
  74.6200       478
  74.6400       498
  74.6600       484
  74.6800       443
  74.7000       466
  74.7200       464
  74.7400       442
  74.7600       451
  74.7800       454
  74.8000       480
  74.8200       487
  74.8400       433
  74.8600       500
  74.8800       480
  74.9000       501
  74.9200       443
  74.9400       486
  74.9600       497
  74.9800       465
  75.0000       482
  75.0200       508
  75.0400       502
  75.0600       495
  75.0800       455
  75.1000       480
  75.1200       447
  75.1400       472
  75.1600       469
  75.1800       463
  75.2000       458
  75.2200       451
  75.2400       459
  75.2600       493
  75.2800       441
  75.3000       455
  75.3200       481
  75.3400       463
  75.3600       478
  75.3800       480
  75.4000       484
  75.4200       447
  75.4400       486
  75.4600       476
  75.4800       459
  75.5000       455
  75.5200       436
  75.5400       446
  75.5600       449
  75.5800       457
  75.6000       489
  75.6200       435
  75.6400       450
  75.6600       432
  75.6800       469
  75.7000       486
  75.7200       487
  75.7400       497
  75.7600       500
  75.7800       473
  75.8000       468
  75.8200       476
  75.8400       499
  75.8600       485
  75.8800       497
  75.9000       467
  75.9200       502
  75.9400       442
  75.9600       472
  75.9800       496
  76.0000       493
  76.0200       457
  76.0400       449
  76.0600       505
  76.0800       497
  76.1000       479
  76.1200       463
  76.1400       480
  76.1600       466
  76.1800       436
  76.2000       455
  76.2200       498
  76.2400       468
  76.2600       485
  76.2800       484
  76.3000       485
  76.3200       471
  76.3400       474
  76.3600       454
  76.3800       456
  76.4000       479
  76.4200       438
  76.4400       486
  76.4600       497
  76.4800       458
  76.5000       458
  76.5200       439
  76.5400       489
  76.5600       469
  76.5800       431
  76.6000       443
  76.6200       458
  76.6400       491
  76.6600       539
  76.6800       503
  76.7000       447
  76.7200       464
  76.7400       493
  76.7600       477
  76.7800       483
  76.8000       450
  76.8200       440
  76.8400       493
  76.8600       455
  76.8800       494
  76.9000       482
  76.9200       476
  76.9400       483
  76.9600       479
  76.9800       490
  77.0000       482
  77.0200       450
  77.0400       462
  77.0600       487
  77.0800       461
  77.1000       510
  77.1200       481
  77.1400       516
  77.1600       452
  77.1800       500
  77.2000       504
  77.2200       486
  77.2400       458
  77.2600       470
  77.2800       490
  77.3000       441
  77.3200       459
  77.3400       474
  77.3600       502
  77.3800       492
  77.4000       448
  77.4200       489
  77.4400       482
  77.4600       472
  77.4800       461
  77.5000       445
  77.5200       477
  77.5400       477
  77.5600       473
  77.5800       500
  77.6000       495
  77.6200       462
  77.6400       458
  77.6600       460
  77.6800       477
  77.7000       495
  77.7200       507
  77.7400       487
  77.7600       482
  77.7800       491
  77.8000       458
  77.8200       487
  77.8400       476
  77.8600       447
  77.8800       489
  77.9000       517
  77.9200       439
  77.9400       494
  77.9600       473
  77.9800       473
  78.0000       503
  78.0200       504
  78.0400       501
  78.0600       496
  78.0800       454
  78.1000       499
  78.1200       439
  78.1400       464
  78.1600       487
  78.1800       459
  78.2000       482
  78.2200       491
  78.2400       472
  78.2600       482
  78.2800       441
  78.3000       462
  78.3200       467
  78.3400       479
  78.3600       454
  78.3800       462
  78.4000       467
  78.4200       431
  78.4400       491
  78.4600       513
  78.4800       486
  78.5000       528
  78.5200       475
  78.5400       487
  78.5600       496
  78.5800       460
  78.6000       485
  78.6200       504
  78.6400       477
  78.6600       491
  78.6800       484
  78.7000       506
  78.7200       483
  78.7400       476
  78.7600       461
  78.7800       510
  78.8000       490
  78.8200       499
  78.8400       464
  78.8600       472
  78.8800       475
  78.9000       432
  78.9200       467
  78.9400       550
  78.9600       457
  78.9800       476
  79.0000       477
  79.0200       483
  79.0400       491
  79.0600       497
  79.0800       470
  79.1000       461
  79.1200       501
  79.1400       480
  79.1600       463
  79.1800       465
  79.2000       489
  79.2200       470
  79.2400       508
  79.2600       471
  79.2800       524
  79.3000       468
  79.3200       523
  79.3400       499
  79.3600       438
  79.3800       530
  79.4000       508
  79.4200       501
  79.4400       456
  79.4600       473
  79.4800       484
  79.5000       502
  79.5200       473
  79.5400       487
  79.5600       487
  79.5800       448
  79.6000       477
  79.6200       514
  79.6400       492
  79.6600       496
  79.6800       453
  79.7000       514
  79.7200       500
  79.7400       535
  79.7600       484
  79.7800       491
  79.8000       528
  79.8200       500
  79.8400       466
  79.8600       519
  79.8800       461
  79.9000       434
  79.9200       478
  79.9400       471
  79.9600       479
  79.9800       515
  80.0000       461
  80.0200       489
  80.0400       450
  80.0600       495
  80.0800       493
  80.1000       495
  80.1200       492
  80.1400       491
  80.1600       516
  80.1800       453
  80.2000       502
  80.2200       465
  80.2400       504
  80.2600       479
  80.2800       519
  80.3000       498
  80.3200       442
  80.3400       476
  80.3600       519
  80.3800       496
  80.4000       481
  80.4200       499
  80.4400       554
  80.4600       479
  80.4800       520
  80.5000       518
  80.5200       491
  80.5400       514
  80.5600       522
  80.5800       547
  80.6000       471
  80.6200       483
  80.6400       439
  80.6600       489
  80.6800       480
  80.7000       442
  80.7200       505
  80.7400       500
  80.7600       457
  80.7800       473
  80.8000       489
  80.8200       503
  80.8400       488
  80.8600       490
  80.8800       511
  80.9000       496
  80.9200       496
  80.9400       525
  80.9600       514
  80.9800       485
  81.0000       506
  81.0200       500
  81.0400       516
  81.0600       482
  81.0800       517
  81.1000       494
  81.1200       522
  81.1400       500
  81.1600       513
  81.1800       528
  81.2000       496
  81.2200       477
  81.2400       510
  81.2600       493
  81.2800       511
  81.3000       516
  81.3200       510
  81.3400       500
  81.3600       498
  81.3800       516
  81.4000       509
  81.4200       542
  81.4400       523
  81.4600       464
  81.4800       494
  81.5000       518
  81.5200       534
  81.5400       576
  81.5600       576
  81.5800       539
  81.6000       570
  81.6200       568
  81.6400       562
  81.6600       534
  81.6800       578
  81.7000       575
  81.7200       566
  81.7400       556
  81.7600       551
  81.7800       563
  81.8000       525
  81.8200       594
  81.8400       523
  81.8600       577
  81.8800       556
  81.9000       577
  81.9200       601
  81.9400       550
  81.9600       561
  81.9800       599
  82.0000       626
  82.0200       593
  82.0400       606
  82.0600       621
  82.0800       621
  82.1000       661
  82.1200       676
  82.1400       621
  82.1600       599
  82.1800       650
  82.2000       675
  82.2200       699
  82.2400       657
  82.2600       706
  82.2800       767
  82.3000       752
  82.3200       721
  82.3400       707
  82.3600       778
  82.3800       749
  82.4000       793
  82.4200       845
  82.4400       804
  82.4600       882
  82.4800       823
  82.5000       888
  82.5200       922
  82.5400       975
  82.5600       934
  82.5800       994
  82.6000      1031
  82.6200      1091
  82.6400      1033
  82.6600      1103
  82.6800      1058
  82.7000      1122
  82.7200      1110
  82.7400      1142
  82.7600      1177
  82.7800      1138
  82.8000      1205
  82.8200      1260
  82.8400      1195
  82.8600      1271
  82.8800      1326
  82.9000      1383
  82.9200      1353
  82.9400      1334
  82.9600      1290
  82.9800      1296
  83.0000      1283
  83.0200      1343
  83.0400      1319
  83.0600      1299
  83.0800      1362
  83.1000      1311
  83.1200      1311
  83.1400      1261
  83.1600      1224
  83.1800      1155
  83.2000      1102
  83.2200      1105
  83.2400      1103
  83.2600      1096
  83.2800      1068
  83.3000      1005
  83.3200      1050
  83.3400       955
  83.3600       986
  83.3800       892
  83.4000       877
  83.4200       851
  83.4400       891
  83.4600       775
  83.4800       781
  83.5000       777
  83.5200       745
  83.5400       766
  83.5600       667
  83.5800       725
  83.6000       684
  83.6200       662
  83.6400       627
  83.6600       655
  83.6800       678
  83.7000       636
  83.7200       656
  83.7400       618
  83.7600       602
  83.7800       610
  83.8000       590
  83.8200       605
  83.8400       537
  83.8600       551
  83.8800       578
  83.9000       552
  83.9200       553
  83.9400       547
  83.9600       543
  83.9800       600
  84.0000       574
  84.0200       566
  84.0400       556
  84.0600       522
  84.0800       504
  84.1000       529
  84.1200       556
  84.1400       516
  84.1600       552
  84.1800       554
  84.2000       508
  84.2200       524
  84.2400       522
  84.2600       453
  84.2800       500
  84.3000       467
  84.3200       491
  84.3400       532
  84.3600       528
  84.3800       497
  84.4000       472
  84.4200       521
  84.4400       498
  84.4600       529
  84.4800       477
  84.5000       480
  84.5200       504
  84.5400       510
  84.5600       489
  84.5800       477
  84.6000       508
  84.6200       526
  84.6400       479
  84.6600       499
  84.6800       485
  84.7000       500
  84.7200       505
  84.7400       510
  84.7600       517
  84.7800       465
  84.8000       431
  84.8200       525
  84.8400       486
  84.8600       517
  84.8800       465
  84.9000       472
  84.9200       475
  84.9400       492
  84.9600       490
  84.9800       531
  85.0000       492
  85.0200       454
  85.0400       528
  85.0600       445
  85.0800       473
  85.1000       479
  85.1200       484
  85.1400       495
  85.1600       475
  85.1800       465
  85.2000       492
  85.2200       497
  85.2400       498
  85.2600       513
  85.2800       511
  85.3000       547
  85.3200       491
  85.3400       450
  85.3600       469
  85.3800       511
  85.4000       484
  85.4200       479
  85.4400       490
  85.4600       502
  85.4800       462
  85.5000       490
  85.5200       455
  85.5400       511
  85.5600       471
  85.5800       468
  85.6000       520
  85.6200       524
  85.6400       481
  85.6600       540
  85.6800       487
  85.7000       452
  85.7200       467
  85.7400       495
  85.7600       525
  85.7800       501
  85.8000       532
  85.8200       489
  85.8400       437
  85.8600       471
  85.8800       504
  85.9000       523
  85.9200       514
  85.9400       453
  85.9600       501
  85.9800       478
  86.0000       489
  86.0200       513
  86.0400       442
  86.0600       476
  86.0800       481
  86.1000       453
  86.1200       512
  86.1400       506
  86.1600       486
  86.1800       476
  86.2000       526
  86.2200       472
  86.2400       501
  86.2600       476
  86.2800       509
  86.3000       507
  86.3200       484
  86.3400       517
  86.3600       469
  86.3800       482
  86.4000       493
  86.4200       481
  86.4400       499
  86.4600       506
  86.4800       476
  86.5000       533
  86.5200       521
  86.5400       480
  86.5600       520
  86.5800       496
  86.6000       513
  86.6200       525
  86.6400       493
  86.6600       501
  86.6800       524
  86.7000       532
  86.7200       516
  86.7400       478
  86.7600       555
  86.7800       550
  86.8000       520
  86.8200       569
  86.8400       536
  86.8600       495
  86.8800       557
  86.9000       545
  86.9200       530
  86.9400       567
  86.9600       568
  86.9800       600
  87.0000       555
  87.0200       612
  87.0400       625
  87.0600       579
  87.0800       619
  87.1000       614
  87.1200       637
  87.1400       591
  87.1600       604
  87.1800       658
  87.2000       612
  87.2200       631
  87.2400       673
  87.2600       655
  87.2800       719
  87.3000       725
  87.3200       744
  87.3400       715
  87.3600       702
  87.3800       710
  87.4000       724
  87.4200       715
  87.4400       757
  87.4600       794
  87.4800       741
  87.5000       754
  87.5200       710
  87.5400       761
  87.5600       755
  87.5800       761
  87.6000       802
  87.6200       769
  87.6400       760
  87.6600       675
  87.6800       749
  87.7000       770
  87.7200       691
  87.7400       692
  87.7600       728
  87.7800       679
  87.8000       687
  87.8200       694
  87.8400       700
  87.8600       640
  87.8800       639
  87.9000       663
  87.9200       620
  87.9400       614
  87.9600       633
  87.9800       669
  88.0000       573
  88.0200       582
  88.0400       622
  88.0600       609
  88.0800       601
  88.1000       557
  88.1200       579
  88.1400       562
  88.1600       500
  88.1800       535
  88.2000       525
  88.2200       541
  88.2400       589
  88.2600       541
  88.2800       477
  88.3000       510
  88.3200       545
  88.3400       477
  88.3600       480
  88.3800       499
  88.4000       498
  88.4200       510
  88.4400       518
  88.4600       507
  88.4800       482
  88.5000       519
  88.5200       521
  88.5400       476
  88.5600       472
  88.5800       534
  88.6000       517
  88.6200       463
  88.6400       533
  88.6600       471
  88.6800       502
  88.7000       450
  88.7200       488
  88.7400       457
  88.7600       499
  88.7800       469
  88.8000       479
  88.8200       476
  88.8400       478
  88.8600       472
  88.8800       492
  88.9000       467
  88.9200       491
  88.9400       452
  88.9600       458
  88.9800       468
  89.0000       500
  89.0200       481
  89.0400       468
  89.0600       495
  89.0800       457
  89.1000       471
  89.1200       532
  89.1400       490
  89.1600       452
  89.1800       485
  89.2000       459
  89.2200       459
  89.2400       477
  89.2600       502
  89.2800       485
  89.3000       474
  89.3200       464
  89.3400       495
  89.3600       526
  89.3800       431
  89.4000       452
  89.4200       492
  89.4400       445
  89.4600       498
  89.4800       497
  89.5000       441
  89.5200       474
  89.5400       426
  89.5600       459
  89.5800       474
  89.6000       464
  89.6200       442
  89.6400       475
  89.6600       456
  89.6800       503
  89.7000       458
  89.7200       475
  89.7400       459
  89.7600       465
  89.7800       497
  89.8000       476
  89.8200       459
  89.8400       466
  89.8600       476
  89.8800       486
  89.9000       444
  89.9200       460
  89.9400       512
  89.9600       490
  89.9800       517
  90.0000       525
  90.0200       510
  90.0400       527
  90.0600       466
  90.0800       506
  90.1000       457
  90.1200       480
  90.1400       453
  90.1600       475
  90.1800       461
  90.2000       464
  90.2200       491
  90.2400       453
  90.2600       504
  90.2800       438
  90.3000       484
  90.3200       447
  90.3400       440
  90.3600       491
  90.3800       455
  90.4000       459
  90.4200       442
  90.4400       466
  90.4600       503
  90.4800       468
  90.5000       453
  90.5200       437
  90.5400       450
  90.5600       462
  90.5800       516
  90.6000       445
  90.6200       450
  90.6400       449
  90.6600       461
  90.6800       481
  90.7000       509
  90.7200       429
  90.7400       468
  90.7600       446
  90.7800       450
  90.8000       460
  90.8200       476
  90.8400       482
  90.8600       472
  90.8800       446
  90.9000       487
  90.9200       474
  90.9400       449
  90.9600       502
  90.9800       501
  91.0000       476
  91.0200       493
  91.0400       457
  91.0600       467
  91.0800       436
  91.1000       473
  91.1200       460
  91.1400       461
  91.1600       497
  91.1800       469
  91.2000       463
  91.2200       475
  91.2400       481
  91.2600       476
  91.2800       450
  91.3000       441
  91.3200       489
  91.3400       456
  91.3600       492
  91.3800       459
  91.4000       442
  91.4200       426
  91.4400       426
  91.4600       473
  91.4800       459
  91.5000       429
  91.5200       465
  91.5400       461
  91.5600       457
  91.5800       446
  91.6000       481
  91.6200       438
  91.6400       456
  91.6600       436
  91.6800       481
  91.7000       489
  91.7200       455
  91.7400       465
  91.7600       505
  91.7800       442
  91.8000       468
  91.8200       488
  91.8400       492
  91.8600       467
  91.8800       489
  91.9000       499
  91.9200       502
  91.9400       458
  91.9600       466
  91.9800       462
  92.0000       478
  92.0200       477
  92.0400       473
  92.0600       431
  92.0800       444
  92.1000       512
  92.1200       486
  92.1400       482
  92.1600       494
  92.1800       513
  92.2000       446
  92.2200       465
  92.2400       451
  92.2600       448
  92.2800       506
  92.3000       488
  92.3200       468
  92.3400       493
  92.3600       490
  92.3800       476
  92.4000       492
  92.4200       464
  92.4400       459
  92.4600       448
  92.4800       520
  92.5000       500
  92.5200       513
  92.5400       449
  92.5600       472
  92.5800       473
  92.6000       456
  92.6200       457
  92.6400       472
  92.6600       505
  92.6800       489
  92.7000       428
  92.7200       432
  92.7400       457
  92.7600       493
  92.7800       499
  92.8000       492
  92.8200       461
  92.8400       487
  92.8600       466
  92.8800       468
  92.9000       500
  92.9200       441
  92.9400       460
  92.9600       435
  92.9800       446
  93.0000       519
  93.0200       474
  93.0400       495
  93.0600       466
  93.0800       457
  93.1000       499
  93.1200       487
  93.1400       473
  93.1600       464
  93.1800       467
  93.2000       479
  93.2200       507
  93.2400       460
  93.2600       509
  93.2800       474
  93.3000       489
  93.3200       451
  93.3400       473
  93.3600       483
  93.3800       480
  93.4000       440
  93.4200       417
  93.4400       472
  93.4600       462
  93.4800       430
  93.5000       490
  93.5200       434
  93.5400       441
  93.5600       472
  93.5800       457
  93.6000       454
  93.6200       455
  93.6400       487
  93.6600       463
  93.6800       439
  93.7000       474
  93.7200       435
  93.7400       445
  93.7600       499
  93.7800       452
  93.8000       469
  93.8200       439
  93.8400       438
  93.8600       449
  93.8800       470
  93.9000       451
  93.9200       487
  93.9400       481
  93.9600       481
  93.9800       448
  94.0000       497
  94.0200       434
  94.0400       428
  94.0600       466
  94.0800       442
  94.1000       530
  94.1200       431
  94.1400       490
  94.1600       513
  94.1800       473
  94.2000       456
  94.2200       442
  94.2400       451
  94.2600       463
  94.2800       444
  94.3000       473
  94.3200       443
  94.3400       445
  94.3600       492
  94.3800       475
  94.4000       462
  94.4200       470
  94.4400       491
  94.4600       454
  94.4800       461
  94.5000       445
  94.5200       516
  94.5400       469
  94.5600       455
  94.5800       451
  94.6000       441
  94.6200       453
  94.6400       446
  94.6600       437
  94.6800       477
  94.7000       498
  94.7200       446
  94.7400       439
  94.7600       434
  94.7800       458
  94.8000       449
  94.8200       465
  94.8400       435
  94.8600       488
  94.8800       460
  94.9000       462
  94.9200       454
  94.9400       475
  94.9600       494
  94.9800       451
  95.0000       469
  95.0200       449
  95.0400       431
  95.0600       470
  95.0800       437
  95.1000       415
  95.1200       448
  95.1400       448
  95.1600       534
  95.1800       474
  95.2000       464
  95.2200       483
  95.2400       463
  95.2600       438
  95.2800       464
  95.3000       464
  95.3200       457
  95.3400       469
  95.3600       497
  95.3800       483
  95.4000       476
  95.4200       499
  95.4400       507
  95.4600       468
  95.4800       470
  95.5000       500
  95.5200       515
  95.5400       496
  95.5600       498
  95.5800       452
  95.6000       454
  95.6200       472
  95.6400       461
  95.6600       440
  95.6800       402
  95.7000       465
  95.7200       462
  95.7400       437
  95.7600       484
  95.7800       460
  95.8000       478
  95.8200       432
  95.8400       444
  95.8600       443
  95.8800       459
  95.9000       475
  95.9200       465
  95.9400       456
  95.9600       468
  95.9800       460
  96.0000       479
  96.0200       466
  96.0400       483
  96.0600       480
  96.0800       460
  96.1000       435
  96.1200       434
  96.1400       491
  96.1600       520
  96.1800       436
  96.2000       425
  96.2200       446
  96.2400       451
  96.2600       439
  96.2800       436
  96.3000       520
  96.3200       433
  96.3400       453
  96.3600       463
  96.3800       496
  96.4000       488
  96.4200       434
  96.4400       473
  96.4600       470
  96.4800       460
  96.5000       457
  96.5200       498
  96.5400       478
  96.5600       452
  96.5800       460
  96.6000       487
  96.6200       440
  96.6400       517
  96.6600       496
  96.6800       455
  96.7000       485
  96.7200       430
  96.7400       451
  96.7600       495
  96.7800       470
  96.8000       487
  96.8200       486
  96.8400       478
  96.8600       459
  96.8800       445
  96.9000       476
  96.9200       461
  96.9400       466
  96.9600       436
  96.9800       454
  97.0000       477
  97.0200       453
  97.0400       457
  97.0600       476
  97.0800       429
  97.1000       510
  97.1200       490
  97.1400       436
  97.1600       461
  97.1800       489
  97.2000       476
  97.2200       466
  97.2400       491
  97.2600       492
  97.2800       448
  97.3000       456
  97.3200       465
  97.3400       488
  97.3600       455
  97.3800       497
  97.4000       468
  97.4200       454
  97.4400       473
  97.4600       460
  97.4800       471
  97.5000       466
  97.5200       479
  97.5400       431
  97.5600       490
  97.5800       430
  97.6000       458
  97.6200       431
  97.6400       499
  97.6600       472
  97.6800       484
  97.7000       479
  97.7200       446
  97.7400       477
  97.7600       488
  97.7800       477
  97.8000       471
  97.8200       476
  97.8400       415
  97.8600       425
  97.8800       501
  97.9000       471
  97.9200       456
  97.9400       510
  97.9600       479
  97.9800       449
  98.0000       490
  98.0200       468
  98.0400       470
  98.0600       515
  98.0800       453
  98.1000       471
  98.1200       452
  98.1400       460
  98.1600       482
  98.1800       485
  98.2000       483
  98.2200       479
  98.2400       468
  98.2600       488
  98.2800       491
  98.3000       474
  98.3200       445
  98.3400       496
  98.3600       477
  98.3800       458
  98.4000       450
  98.4200       473
  98.4400       428
  98.4600       459
  98.4800       471
  98.5000       460
  98.5200       461
  98.5400       481
  98.5600       497
  98.5800       515
  98.6000       494
  98.6200       492
  98.6400       479
  98.6600       467
  98.6800       446
  98.7000       479
  98.7200       522
  98.7400       477
  98.7600       461
  98.7800       442
  98.8000       467
  98.8200       484
  98.8400       489
  98.8600       482
  98.8800       474
  98.9000       460
  98.9200       472
  98.9400       486
  98.9600       475
  98.9800       456
  99.0000       498
  99.0200       406
  99.0400       505
  99.0600       487
  99.0800       455
  99.1000       476
  99.1200       477
  99.1400       486
  99.1600       520
  99.1800       469
  99.2000       465
  99.2200       485
  99.2400       490
  99.2600       423
  99.2800       495
  99.3000       513
  99.3200       482
  99.3400       423
  99.3600       487
  99.3800       477
  99.4000       448
  99.4200       476
  99.4400       525
  99.4600       448
  99.4800       500
  99.5000       491
  99.5200       449
  99.5400       490
  99.5600       480
  99.5800       448
  99.6000       443
  99.6200       484
  99.6400       477
  99.6600       501
  99.6800       487
  99.7000       496
  99.7200       485
  99.7400       481
  99.7600       458
  99.7800       496
  99.8000       495
  99.8200       483
  99.8400       462
  99.8600       491
  99.8800       489
  99.9000       493
  99.9200       526
  99.9400       468
  99.9600       458
  99.9800       467
 100.0000       501
 100.0200       449
 100.0400       452
 100.0600       460
 100.0800       442
 100.1000       460
 100.1200       483
 100.1400       436
 100.1600       478
 100.1800       461
 100.2000       477
 100.2200       530
 100.2400       442
 100.2600       473
 100.2800       482
 100.3000       446
 100.3200       467
 100.3400       478
 100.3600       479
 100.3800       463
 100.4000       477
 100.4200       474
 100.4400       499
 100.4600       500
 100.4800       445
 100.5000       465
 100.5200       471
 100.5400       475
 100.5600       500
 100.5800       487
 100.6000       478
 100.6200       517
 100.6400       457
 100.6600       462
 100.6800       495
 100.7000       454
 100.7200       449
 100.7400       481
 100.7600       475
 100.7800       501
 100.8000       471
 100.8200       458
 100.8400       443
 100.8600       505
 100.8800       474
 100.9000       495
 100.9200       496
 100.9400       455
 100.9600       463
 100.9800       492
 101.0000       503
 101.0200       461
 101.0400       493
 101.0600       515
 101.0800       532
 101.1000       460
 101.1200       472
 101.1400       435
 101.1600       494
 101.1800       452
 101.2000       466
 101.2200       484
 101.2400       447
 101.2600       505
 101.2800       457
 101.3000       466
 101.3200       462
 101.3400       490
 101.3600       483
 101.3800       483
 101.4000       456
 101.4200       462
 101.4400       478
 101.4600       532
 101.4800       512
 101.5000       463
 101.5200       503
 101.5400       455
 101.5600       435
 101.5800       433
 101.6000       480
 101.6200       466
 101.6400       460
 101.6600       471
 101.6800       511
 101.7000       454
 101.7200       494
 101.7400       474
 101.7600       469
 101.7800       491
 101.8000       462
 101.8200       430
 101.8400       498
 101.8600       506
 101.8800       503
 101.9000       497
 101.9200       457
 101.9400       525
 101.9600       484
 101.9800       506
 102.0000       474
 102.0200       482
 102.0400       468
 102.0600       491
 102.0800       475
 102.1000       520
 102.1200       480
 102.1400       464
 102.1600       462
 102.1800       475
 102.2000       471
 102.2200       465
 102.2400       464
 102.2600       477
 102.2800       475
 102.3000       497
 102.3200       470
 102.3400       500
 102.3600       427
 102.3800       524
 102.4000       464
 102.4200       501
 102.4400       469
 102.4600       492
 102.4800       473
 102.5000       483
 102.5200       443
 102.5400       457
 102.5600       483
 102.5800       513
 102.6000       496
 102.6200       451
 102.6400       457
 102.6600       486
 102.6800       485
 102.7000       518
 102.7200       456
 102.7400       467
 102.7600       481
 102.7800       505
 102.8000       487
 102.8200       482
 102.8400       455
 102.8600       494
 102.8800       488
 102.9000       493
 102.9200       518
 102.9400       483
 102.9600       465
 102.9800       484
 103.0000       482
 103.0200       462
 103.0400       440
 103.0600       482
 103.0800       516
 103.1000       463
 103.1200       499
 103.1400       500
 103.1600       440
 103.1800       485
 103.2000       489
 103.2200       507
 103.2400       497
 103.2600       503
 103.2800       481
 103.3000       490
 103.3200       504
 103.3400       477
 103.3600       478
 103.3800       476
 103.4000       474
 103.4200       496
 103.4400       539
 103.4600       502
 103.4800       484
 103.5000       528
 103.5200       475
 103.5400       462
 103.5600       471
 103.5800       424
 103.6000       491
 103.6200       496
 103.6400       477
 103.6600       507
 103.6800       507
 103.7000       528
 103.7200       515
 103.7400       543
 103.7600       487
 103.7800       499
 103.8000       506
 103.8200       465
 103.8400       476
 103.8600       498
 103.8800       511
 103.9000       543
 103.9200       498
 103.9400       537
 103.9600       475
 103.9800       505
 104.0000       485
 104.0200       484
 104.0400       496
 104.0600       507
 104.0800       492
 104.1000       476
 104.1200       485
 104.1400       499
 104.1600       494
 104.1800       533
 104.2000       512
 104.2200       514
 104.2400       500
 104.2600       499
 104.2800       453
 104.3000       505
 104.3200       454
 104.3400       500
 104.3600       500
 104.3800       479
 104.4000       511
 104.4200       504
 104.4400       504
 104.4600       483
 104.4800       508
 104.5000       521
 104.5200       498
 104.5400       496
 104.5600       518
 104.5800       482
 104.6000       518
 104.6200       455
 104.6400       491
 104.6600       528
 104.6800       483
 104.7000       576
 104.7200       461
 104.7400       464
 104.7600       485
 104.7800       498
 104.8000       496
 104.8200       482
 104.8400       478
 104.8600       520
 104.8800       505
 104.9000       496
 104.9200       476
 104.9400       555
 104.9600       509
 104.9800       492
 105.0000       489
