; C:\Data\Jenni\Praktikum B2.2\11-12-18-Jï¿½rg\Probe2.raw(Diffrac Plus V1.01 file) converted by XCH V1.0
_FILEVERSION=2
_SAMPLE='Probe2'
_SITE='II. Physikalisches Institut'
_ATTACHMENTS_CODE=0
_GONIOMETER_RADIUS=200.500000
_FIXED_DIVSLIT=2.000000
_FIXED_SAMPLESLIT=1.000000
_FIXED_DETSLIT=0.200000
_MONOCHROMATOR=0
; None
_THIN_FILM='N'
_BETA_FILTER='Y'
_FIXED_ANTISLIT=2.000000
_ANALYZER_CODE=0
; None
_DATEMEASURED='13-Dec-2018 08:08:21'
_WL_UNIT='A'
_WL1=1.540590
_WL2=1.544430
_WL3=1.392230
_WLRATIO=0.520000
_ANODE='Cu'
; (Data for Range number 1)
_DRIVE='COUPLED'
_STEPTIME=5.000000
_STEPSIZE=0.020000
_STEPMODE='C'
_START=20.000000
_THETA=10.000000
_2THETA=20.000000
_KHI=0.000000
_PHI=0.000000
_X=0.000000
_Y=0.000000
_Z=0.000000
_DIVERGENCE=0.000000
_ANTISCATTER=0.000000
_DETECTOR=1
; S.C.
_HV=1000.000000
_GAIN=80.000000
_LLD=0.550000
_ULD=1.310000
_DETECTORSLIT='unkn'
_AUX1=0.000000
_AUX2=0.000000
_AUX3=0.000000
_TIMESTARTED=18.000000
_ROTATION_SPEED=120.000000
_TEMP_RATE=-1.000000
_TEMP_DELAY=-1.000000
_KV=40
_MA=40
_RANGE_WL=1.540590
_3DPLANE=0
_2THETACOUNTS
  20.0000       533
  20.0200       558
  20.0400       526
  20.0600       538
  20.0800       515
  20.1000       547
  20.1200       583
  20.1400       571
  20.1600       480
  20.1800       571
  20.2000       523
  20.2200       520
  20.2400       537
  20.2600       541
  20.2800       512
  20.3000       591
  20.3200       500
  20.3400       497
  20.3600       537
  20.3800       548
  20.4000       543
  20.4200       552
  20.4400       556
  20.4600       545
  20.4800       538
  20.5000       555
  20.5200       583
  20.5400       525
  20.5600       574
  20.5800       543
  20.6000       523
  20.6200       612
  20.6400       503
  20.6600       569
  20.6800       549
  20.7000       579
  20.7200       570
  20.7400       563
  20.7600       540
  20.7800       533
  20.8000       601
  20.8200       571
  20.8400       588
  20.8600       573
  20.8800       547
  20.9000       574
  20.9200       565
  20.9400       565
  20.9600       566
  20.9800       600
  21.0000       595
  21.0200       561
  21.0400       562
  21.0600       590
  21.0800       547
  21.1000       544
  21.1200       589
  21.1400       644
  21.1600       617
  21.1800       621
  21.2000       604
  21.2200       617
  21.2400       607
  21.2600       572
  21.2800       595
  21.3000       643
  21.3200       615
  21.3400       608
  21.3600       648
  21.3800       605
  21.4000       611
  21.4200       624
  21.4400       606
  21.4600       629
  21.4800       665
  21.5000       599
  21.5200       570
  21.5400       575
  21.5600       619
  21.5800       586
  21.6000       617
  21.6200       593
  21.6400       619
  21.6600       598
  21.6800       603
  21.7000       646
  21.7200       668
  21.7400       643
  21.7600       621
  21.7800       643
  21.8000       621
  21.8200       641
  21.8400       602
  21.8600       606
  21.8800       601
  21.9000       623
  21.9200       617
  21.9400       619
  21.9600       609
  21.9800       594
  22.0000       621
  22.0200       656
  22.0400       670
  22.0600       644
  22.0800       609
  22.1000       613
  22.1200       661
  22.1400       636
  22.1600       585
  22.1800       673
  22.2000       611
  22.2200       595
  22.2400       584
  22.2600       658
  22.2800       663
  22.3000       649
  22.3200       633
  22.3400       614
  22.3600       618
  22.3800       634
  22.4000       677
  22.4200       664
  22.4400       632
  22.4600       648
  22.4800       621
  22.5000       646
  22.5200       642
  22.5400       668
  22.5600       647
  22.5800       646
  22.6000       642
  22.6200       657
  22.6400       638
  22.6600       613
  22.6800       660
  22.7000       655
  22.7200       623
  22.7400       654
  22.7600       620
  22.7800       657
  22.8000       681
  22.8200       656
  22.8400       677
  22.8600       700
  22.8800       641
  22.9000       716
  22.9200       686
  22.9400       727
  22.9600       660
  22.9800       639
  23.0000       621
  23.0200       668
  23.0400       690
  23.0600       687
  23.0800       678
  23.1000       680
  23.1200       662
  23.1400       644
  23.1600       670
  23.1800       685
  23.2000       682
  23.2200       668
  23.2400       677
  23.2600       684
  23.2800       684
  23.3000       706
  23.3200       630
  23.3400       657
  23.3600       687
  23.3800       695
  23.4000       641
  23.4200       669
  23.4400       659
  23.4600       673
  23.4800       699
  23.5000       653
  23.5200       707
  23.5400       723
  23.5600       671
  23.5800       703
  23.6000       665
  23.6200       755
  23.6400       739
  23.6600       670
  23.6800       744
  23.7000       710
  23.7200       728
  23.7400       725
  23.7600       732
  23.7800       704
  23.8000       713
  23.8200       713
  23.8400       696
  23.8600       702
  23.8800       706
  23.9000       715
  23.9200       670
  23.9400       743
  23.9600       751
  23.9800       696
  24.0000       715
  24.0200       746
  24.0400       729
  24.0600       729
  24.0800       681
  24.1000       745
  24.1200       720
  24.1400       689
  24.1600       714
  24.1800       728
  24.2000       718
  24.2200       705
  24.2400       659
  24.2600       676
  24.2800       688
  24.3000       673
  24.3200       694
  24.3400       700
  24.3600       704
  24.3800       711
  24.4000       664
  24.4200       678
  24.4400       707
  24.4600       691
  24.4800       713
  24.5000       678
  24.5200       686
  24.5400       661
  24.5600       704
  24.5800       719
  24.6000       676
  24.6200       732
  24.6400       694
  24.6600       651
  24.6800       672
  24.7000       665
  24.7200       671
  24.7400       667
  24.7600       698
  24.7800       724
  24.8000       696
  24.8200       651
  24.8400       701
  24.8600       660
  24.8800       678
  24.9000       662
  24.9200       682
  24.9400       698
  24.9600       639
  24.9800       700
  25.0000       714
  25.0200       757
  25.0400       658
  25.0600       668
  25.0800       667
  25.1000       702
  25.1200       674
  25.1400       693
  25.1600       657
  25.1800       671
  25.2000       673
  25.2200       724
  25.2400       676
  25.2600       620
  25.2800       682
  25.3000       664
  25.3200       665
  25.3400       709
  25.3600       685
  25.3800       730
  25.4000       701
  25.4200       693
  25.4400       665
  25.4600       672
  25.4800       677
  25.5000       671
  25.5200       634
  25.5400       669
  25.5600       666
  25.5800       654
  25.6000       648
  25.6200       658
  25.6400       696
  25.6600       680
  25.6800       644
  25.7000       700
  25.7200       670
  25.7400       664
  25.7600       693
  25.7800       684
  25.8000       640
  25.8200       656
  25.8400       675
  25.8600       700
  25.8800       637
  25.9000       684
  25.9200       653
  25.9400       682
  25.9600       673
  25.9800       682
  26.0000       622
  26.0200       651
  26.0400       662
  26.0600       661
  26.0800       643
  26.1000       639
  26.1200       646
  26.1400       672
  26.1600       688
  26.1800       635
  26.2000       646
  26.2200       677
  26.2400       668
  26.2600       666
  26.2800       676
  26.3000       619
  26.3200       664
  26.3400       705
  26.3600       645
  26.3800       714
  26.4000       703
  26.4200       679
  26.4400       703
  26.4600       674
  26.4800       638
  26.5000       693
  26.5200       680
  26.5400       679
  26.5600       666
  26.5800       673
  26.6000       665
  26.6200       686
  26.6400       646
  26.6600       641
  26.6800       650
  26.7000       665
  26.7200       640
  26.7400       658
  26.7600       656
  26.7800       629
  26.8000       711
  26.8200       663
  26.8400       683
  26.8600       633
  26.8800       665
  26.9000       656
  26.9200       645
  26.9400       646
  26.9600       693
  26.9800       615
  27.0000       713
  27.0200       661
  27.0400       616
  27.0600       637
  27.0800       694
  27.1000       653
  27.1200       613
  27.1400       641
  27.1600       623
  27.1800       655
  27.2000       692
  27.2200       625
  27.2400       689
  27.2600       678
  27.2800       670
  27.3000       670
  27.3200       657
  27.3400       601
  27.3600       680
  27.3800       652
  27.4000       648
  27.4200       651
  27.4400       656
  27.4600       672
  27.4800       667
  27.5000       700
  27.5200       640
  27.5400       620
  27.5600       675
  27.5800       680
  27.6000       675
  27.6200       655
  27.6400       672
  27.6600       638
  27.6800       677
  27.7000       660
  27.7200       687
  27.7400       629
  27.7600       637
  27.7800       639
  27.8000       661
  27.8200       645
  27.8400       612
  27.8600       638
  27.8800       620
  27.9000       664
  27.9200       655
  27.9400       618
  27.9600       598
  27.9800       651
  28.0000       657
  28.0200       655
  28.0400       664
  28.0600       641
  28.0800       600
  28.1000       623
  28.1200       619
  28.1400       613
  28.1600       650
  28.1800       631
  28.2000       593
  28.2200       639
  28.2400       678
  28.2600       703
  28.2800       689
  28.3000       748
  28.3200       741
  28.3400       741
  28.3600       656
  28.3800       673
  28.4000       641
  28.4200       667
  28.4400       654
  28.4600       602
  28.4800       657
  28.5000       621
  28.5200       624
  28.5400       590
  28.5600       624
  28.5800       597
  28.6000       657
  28.6200       607
  28.6400       618
  28.6600       623
  28.6800       659
  28.7000       630
  28.7200       587
  28.7400       619
  28.7600       629
  28.7800       605
  28.8000       650
  28.8200       616
  28.8400       620
  28.8600       643
  28.8800       645
  28.9000       621
  28.9200       616
  28.9400       627
  28.9600       598
  28.9800       594
  29.0000       646
  29.0200       620
  29.0400       632
  29.0600       665
  29.0800       582
  29.1000       608
  29.1200       619
  29.1400       599
  29.1600       616
  29.1800       672
  29.2000       572
  29.2200       644
  29.2400       610
  29.2600       624
  29.2800       584
  29.3000       619
  29.3200       621
  29.3400       621
  29.3600       600
  29.3800       602
  29.4000       614
  29.4200       610
  29.4400       593
  29.4600       612
  29.4800       606
  29.5000       631
  29.5200       605
  29.5400       598
  29.5600       668
  29.5800       624
  29.6000       688
  29.6200       619
  29.6400       650
  29.6600       581
  29.6800       629
  29.7000       600
  29.7200       611
  29.7400       665
  29.7600       627
  29.7800       600
  29.8000       605
  29.8200       632
  29.8400       633
  29.8600       606
  29.8800       588
  29.9000       592
  29.9200       660
  29.9400       620
  29.9600       560
  29.9800       632
  30.0000       575
  30.0200       604
  30.0400       615
  30.0600       611
  30.0800       607
  30.1000       602
  30.1200       597
  30.1400       620
  30.1600       643
  30.1800       634
  30.2000       655
  30.2200       615
  30.2400       646
  30.2600       608
  30.2800       579
  30.3000       648
  30.3200       610
  30.3400       598
  30.3600       609
  30.3800       616
  30.4000       590
  30.4200       633
  30.4400       562
  30.4600       590
  30.4800       600
  30.5000       611
  30.5200       652
  30.5400       600
  30.5600       601
  30.5800       603
  30.6000       600
  30.6200       637
  30.6400       570
  30.6600       602
  30.6800       618
  30.7000       569
  30.7200       619
  30.7400       622
  30.7600       658
  30.7800       621
  30.8000       637
  30.8200       594
  30.8400       607
  30.8600       611
  30.8800       580
  30.9000       634
  30.9200       622
  30.9400       603
  30.9600       593
  30.9800       673
  31.0000       601
  31.0200       646
  31.0400       577
  31.0600       581
  31.0800       656
  31.1000       586
  31.1200       607
  31.1400       597
  31.1600       634
  31.1800       595
  31.2000       615
  31.2200       616
  31.2400       628
  31.2600       635
  31.2800       622
  31.3000       606
  31.3200       592
  31.3400       640
  31.3600       618
  31.3800       571
  31.4000       587
  31.4200       639
  31.4400       623
  31.4600       624
  31.4800       596
  31.5000       650
  31.5200       617
  31.5400       629
  31.5600       651
  31.5800       593
  31.6000       635
  31.6200       640
  31.6400       642
  31.6600       627
  31.6800       593
  31.7000       621
  31.7200       590
  31.7400       657
  31.7600       573
  31.7800       629
  31.8000       631
  31.8200       611
  31.8400       623
  31.8600       592
  31.8800       599
  31.9000       624
  31.9200       613
  31.9400       628
  31.9600       590
  31.9800       603
  32.0000       616
  32.0200       589
  32.0400       566
  32.0600       598
  32.0800       632
  32.1000       602
  32.1200       571
  32.1400       596
  32.1600       566
  32.1800       632
  32.2000       593
  32.2200       609
  32.2400       590
  32.2600       593
  32.2800       611
  32.3000       647
  32.3200       577
  32.3400       627
  32.3600       590
  32.3800       610
  32.4000       586
  32.4200       617
  32.4400       611
  32.4600       605
  32.4800       613
  32.5000       571
  32.5200       631
  32.5400       635
  32.5600       638
  32.5800       641
  32.6000       617
  32.6200       599
  32.6400       608
  32.6600       593
  32.6800       607
  32.7000       608
  32.7200       580
  32.7400       627
  32.7600       621
  32.7800       581
  32.8000       616
  32.8200       601
  32.8400       643
  32.8600       633
  32.8800       632
  32.9000       611
  32.9200       620
  32.9400       600
  32.9600       656
  32.9800       588
  33.0000       568
  33.0200       563
  33.0400       621
  33.0600       593
  33.0800       573
  33.1000       595
  33.1200       624
  33.1400       644
  33.1600       603
  33.1800       661
  33.2000       586
  33.2200       612
  33.2400       604
  33.2600       635
  33.2800       609
  33.3000       635
  33.3200       619
  33.3400       583
  33.3600       622
  33.3800       658
  33.4000       622
  33.4200       621
  33.4400       626
  33.4600       583
  33.4800       659
  33.5000       642
  33.5200       649
  33.5400       604
  33.5600       659
  33.5800       615
  33.6000       623
  33.6200       635
  33.6400       612
  33.6600       646
  33.6800       593
  33.7000       604
  33.7200       632
  33.7400       640
  33.7600       647
  33.7800       623
  33.8000       577
  33.8200       612
  33.8400       606
  33.8600       683
  33.8800       609
  33.9000       652
  33.9200       654
  33.9400       650
  33.9600       600
  33.9800       637
  34.0000       674
  34.0200       618
  34.0400       610
  34.0600       650
  34.0800       628
  34.1000       644
  34.1200       668
  34.1400       661
  34.1600       642
  34.1800       679
  34.2000       606
  34.2200       616
  34.2400       639
  34.2600       627
  34.2800       635
  34.3000       625
  34.3200       594
  34.3400       669
  34.3600       675
  34.3800       663
  34.4000       604
  34.4200       603
  34.4400       646
  34.4600       652
  34.4800       701
  34.5000       620
  34.5200       606
  34.5400       634
  34.5600       640
  34.5800       609
  34.6000       637
  34.6200       626
  34.6400       655
  34.6600       617
  34.6800       627
  34.7000       636
  34.7200       628
  34.7400       586
  34.7600       628
  34.7800       611
  34.8000       584
  34.8200       605
  34.8400       595
  34.8600       616
  34.8800       580
  34.9000       595
  34.9200       656
  34.9400       591
  34.9600       589
  34.9800       593
  35.0000       599
  35.0200       639
  35.0400       619
  35.0600       638
  35.0800       572
  35.1000       593
  35.1200       608
  35.1400       603
  35.1600       547
  35.1800       612
  35.2000       578
  35.2200       619
  35.2400       590
  35.2600       611
  35.2800       581
  35.3000       601
  35.3200       607
  35.3400       612
  35.3600       573
  35.3800       610
  35.4000       593
  35.4200       610
  35.4400       640
  35.4600       582
  35.4800       630
  35.5000       559
  35.5200       615
  35.5400       565
  35.5600       559
  35.5800       613
  35.6000       605
  35.6200       596
  35.6400       587
  35.6600       555
  35.6800       580
  35.7000       557
  35.7200       589
  35.7400       559
  35.7600       551
  35.7800       604
  35.8000       549
  35.8200       576
  35.8400       588
  35.8600       591
  35.8800       567
  35.9000       580
  35.9200       584
  35.9400       577
  35.9600       585
  35.9800       587
  36.0000       589
  36.0200       574
  36.0400       544
  36.0600       584
  36.0800       604
  36.1000       640
  36.1200       589
  36.1400       598
  36.1600       628
  36.1800       570
  36.2000       609
  36.2200       572
  36.2400       615
  36.2600       592
  36.2800       585
  36.3000       594
  36.3200       576
  36.3400       579
  36.3600       591
  36.3800       606
  36.4000       574
  36.4200       587
  36.4400       573
  36.4600       595
  36.4800       573
  36.5000       614
  36.5200       581
  36.5400       615
  36.5600       599
  36.5800       585
  36.6000       576
  36.6200       589
  36.6400       546
  36.6600       598
  36.6800       550
  36.7000       600
  36.7200       580
  36.7400       554
  36.7600       537
  36.7800       595
  36.8000       591
  36.8200       593
  36.8400       619
  36.8600       599
  36.8800       597
  36.9000       556
  36.9200       560
  36.9400       584
  36.9600       561
  36.9800       601
  37.0000       610
  37.0200       552
  37.0400       564
  37.0600       595
  37.0800       575
  37.1000       639
  37.1200       643
  37.1400       572
  37.1600       593
  37.1800       559
  37.2000       583
  37.2200       583
  37.2400       593
  37.2600       547
  37.2800       603
  37.3000       582
  37.3200       626
  37.3400       615
  37.3600       604
  37.3800       620
  37.4000       602
  37.4200       543
  37.4400       597
  37.4600       625
  37.4800       617
  37.5000       606
  37.5200       636
  37.5400       604
  37.5600       662
  37.5800       639
  37.6000       658
  37.6200       640
  37.6400       609
  37.6600       635
  37.6800       627
  37.7000       646
  37.7200       620
  37.7400       664
  37.7600       666
  37.7800       657
  37.8000       628
  37.8200       656
  37.8400       638
  37.8600       640
  37.8800       623
  37.9000       631
  37.9200       656
  37.9400       637
  37.9600       619
  37.9800       575
  38.0000       594
  38.0200       623
  38.0400       606
  38.0600       661
  38.0800       649
  38.1000       624
  38.1200       622
  38.1400       647
  38.1600       642
  38.1800       625
  38.2000       634
  38.2200       635
  38.2400       659
  38.2600       661
  38.2800       639
  38.3000       687
  38.3200       640
  38.3400       641
  38.3600       680
  38.3800       652
  38.4000       638
  38.4200       648
  38.4400       665
  38.4600       657
  38.4800       618
  38.5000       621
  38.5200       578
  38.5400       626
  38.5600       604
  38.5800       648
  38.6000       639
  38.6200       639
  38.6400       618
  38.6600       590
  38.6800       597
  38.7000       601
  38.7200       652
  38.7400       574
  38.7600       646
  38.7800       588
  38.8000       567
  38.8200       624
  38.8400       595
  38.8600       622
  38.8800       613
  38.9000       630
  38.9200       566
  38.9400       613
  38.9600       588
  38.9800       625
  39.0000       604
  39.0200       626
  39.0400       611
  39.0600       589
  39.0800       586
  39.1000       656
  39.1200       650
  39.1400       579
  39.1600       598
  39.1800       597
  39.2000       567
  39.2200       584
  39.2400       625
  39.2600       607
  39.2800       651
  39.3000       606
  39.3200       607
  39.3400       566
  39.3600       634
  39.3800       587
  39.4000       626
  39.4200       622
  39.4400       607
  39.4600       586
  39.4800       591
  39.5000       614
  39.5200       634
  39.5400       579
  39.5600       608
  39.5800       623
  39.6000       594
  39.6200       658
  39.6400       650
  39.6600       646
  39.6800       536
  39.7000       644
  39.7200       615
  39.7400       595
  39.7600       606
  39.7800       615
  39.8000       611
  39.8200       647
  39.8400       603
  39.8600       657
  39.8800       615
  39.9000       628
  39.9200       643
  39.9400       630
  39.9600       653
  39.9800       675
  40.0000       617
  40.0200       648
  40.0400       676
  40.0600       607
  40.0800       635
  40.1000       649
  40.1200       609
  40.1400       668
  40.1600       677
  40.1800       648
  40.2000       659
  40.2200       691
  40.2400       664
  40.2600       699
  40.2800       641
  40.3000       648
  40.3200       665
  40.3400       708
  40.3600       628
  40.3800       676
  40.4000       640
  40.4200       675
  40.4400       672
  40.4600       670
  40.4800       691
  40.5000       706
  40.5200       643
  40.5400       664
  40.5600       694
  40.5800       648
  40.6000       659
  40.6200       690
  40.6400       706
  40.6600       665
  40.6800       676
  40.7000       685
  40.7200       675
  40.7400       714
  40.7600       706
  40.7800       738
  40.8000       753
  40.8200       652
  40.8400       673
  40.8600       698
  40.8800       665
  40.9000       726
  40.9200       662
  40.9400       730
  40.9600       664
  40.9800       754
  41.0000       739
  41.0200       731
  41.0400       731
  41.0600       696
  41.0800       725
  41.1000       757
  41.1200       795
  41.1400       773
  41.1600       771
  41.1800       789
  41.2000       764
  41.2200       842
  41.2400       831
  41.2600       812
  41.2800       824
  41.3000       785
  41.3200       893
  41.3400       913
  41.3600       950
  41.3800      1002
  41.4000      1045
  41.4200      1062
  41.4400      1094
  41.4600      1126
  41.4800      1173
  41.5000      1322
  41.5200      1418
  41.5400      1457
  41.5600      1565
  41.5800      1622
  41.6000      1873
  41.6200      1922
  41.6400      2139
  41.6600      2339
  41.6800      2452
  41.7000      2661
  41.7200      2684
  41.7400      3017
  41.7600      3215
  41.7800      3426
  41.8000      3721
  41.8200      3767
  41.8400      3793
  41.8600      4151
  41.8800      4253
  41.9000      4306
  41.9200      4396
  41.9400      4266
  41.9600      4342
  41.9800      4236
  42.0000      4016
  42.0200      3849
  42.0400      3644
  42.0600      3311
  42.0800      3128
  42.1000      3012
  42.1200      2734
  42.1400      2410
  42.1600      2339
  42.1800      2047
  42.2000      2009
  42.2200      1838
  42.2400      1626
  42.2600      1507
  42.2800      1431
  42.3000      1357
  42.3200      1257
  42.3400      1150
  42.3600      1115
  42.3800      1054
  42.4000       983
  42.4200       963
  42.4400       917
  42.4600       915
  42.4800       870
  42.5000       869
  42.5200       888
  42.5400       790
  42.5600       781
  42.5800       801
  42.6000       797
  42.6200       808
  42.6400       802
  42.6600       779
  42.6800       764
  42.7000       708
  42.7200       733
  42.7400       706
  42.7600       681
  42.7800       760
  42.8000       710
  42.8200       707
  42.8400       719
  42.8600       691
  42.8800       719
  42.9000       675
  42.9200       719
  42.9400       679
  42.9600       684
  42.9800       671
  43.0000       554
  43.0200       685
  43.0400       719
  43.0600       651
  43.0800       662
  43.1000       659
  43.1200       646
  43.1400       642
  43.1600       653
  43.1800       636
  43.2000       692
  43.2200       668
  43.2400       670
  43.2600       634
  43.2800       702
  43.3000       661
  43.3200       730
  43.3400       699
  43.3600       660
  43.3800       651
  43.4000       655
  43.4200       684
  43.4400       696
  43.4600       657
  43.4800       678
  43.5000       689
  43.5200       690
  43.5400       680
  43.5600       659
  43.5800       686
  43.6000       666
  43.6200       678
  43.6400       683
  43.6600       731
  43.6800       655
  43.7000       662
  43.7200       646
  43.7400       735
  43.7600       704
  43.7800       688
  43.8000       700
  43.8200       661
  43.8400       679
  43.8600       658
  43.8800       683
  43.9000       677
  43.9200       704
  43.9400       659
  43.9600       628
  43.9800       626
  44.0000       709
  44.0200       682
  44.0400       655
  44.0600       681
  44.0800       611
  44.1000       650
  44.1200       643
  44.1400       642
  44.1600       640
  44.1800       662
  44.2000       677
  44.2200       618
  44.2400       617
  44.2600       645
  44.2800       636
  44.3000       662
  44.3200       667
  44.3400       646
  44.3600       631
  44.3800       658
  44.4000       643
  44.4200       635
  44.4400       648
  44.4600       658
  44.4800       684
  44.5000       646
  44.5200       658
  44.5400       629
  44.5600       622
  44.5800       638
  44.6000       661
  44.6200       629
  44.6400       605
  44.6600       640
  44.6800       707
  44.7000       695
  44.7200       653
  44.7400       644
  44.7600       622
  44.7800       626
  44.8000       673
  44.8200       678
  44.8400       640
  44.8600       592
  44.8800       642
  44.9000       643
  44.9200       695
  44.9400       614
  44.9600       651
  44.9800       647
  45.0000       624
  45.0200       672
  45.0400       638
  45.0600       618
  45.0800       628
  45.1000       688
  45.1200       631
  45.1400       611
  45.1600       600
  45.1800       624
  45.2000       678
  45.2200       669
  45.2400       623
  45.2600       643
  45.2800       684
  45.3000       544
  45.3200       585
  45.3400       659
  45.3600       632
  45.3800       655
  45.4000       648
  45.4200       655
  45.4400       641
  45.4600       659
  45.4800       640
  45.5000       650
  45.5200       589
  45.5400       626
  45.5600       650
  45.5800       629
  45.6000       691
  45.6200       601
  45.6400       651
  45.6600       651
  45.6800       700
  45.7000       627
  45.7200       651
  45.7400       706
  45.7600       654
  45.7800       680
  45.8000       639
  45.8200       590
  45.8400       634
  45.8600       658
  45.8800       647
  45.9000       654
  45.9200       689
  45.9400       663
  45.9600       638
  45.9800       660
  46.0000       663
  46.0200       607
  46.0400       638
  46.0600       668
  46.0800       662
  46.1000       627
  46.1200       611
  46.1400       645
  46.1600       664
  46.1800       669
  46.2000       670
  46.2200       664
  46.2400       647
  46.2600       612
  46.2800       657
  46.3000       686
  46.3200       671
  46.3400       651
  46.3600       649
  46.3800       693
  46.4000       671
  46.4200       678
  46.4400       640
  46.4600       655
  46.4800       677
  46.5000       665
  46.5200       651
  46.5400       631
  46.5600       664
  46.5800       679
  46.6000       623
  46.6200       674
  46.6400       701
  46.6600       689
  46.6800       721
  46.7000       670
  46.7200       739
  46.7400       672
  46.7600       675
  46.7800       691
  46.8000       709
  46.8200       719
  46.8400       673
  46.8600       681
  46.8800       679
  46.9000       691
  46.9200       712
  46.9400       691
  46.9600       672
  46.9800       684
  47.0000       674
  47.0200       672
  47.0400       706
  47.0600       720
  47.0800       707
  47.1000       724
  47.1200       669
  47.1400       707
  47.1600       726
  47.1800       684
  47.2000       660
  47.2200       757
  47.2400       688
  47.2600       725
  47.2800       699
  47.3000       670
  47.3200       671
  47.3400       719
  47.3600       730
  47.3800       710
  47.4000       755
  47.4200       699
  47.4400       711
  47.4600       697
  47.4800       709
  47.5000       740
  47.5200       695
  47.5400       731
  47.5600       702
  47.5800       726
  47.6000       758
  47.6200       752
  47.6400       758
  47.6600       705
  47.6800       748
  47.7000       810
  47.7200       751
  47.7400       735
  47.7600       797
  47.7800       774
  47.8000       771
  47.8200       796
  47.8400       802
  47.8600       855
  47.8800       851
  47.9000       893
  47.9200       902
  47.9400       869
  47.9600       898
  47.9800       900
  48.0000       904
  48.0200       935
  48.0400      1050
  48.0600       995
  48.0800      1032
  48.1000      1079
  48.1200      1073
  48.1400      1137
  48.1600      1211
  48.1800      1172
  48.2000      1250
  48.2200      1240
  48.2400      1362
  48.2600      1399
  48.2800      1421
  48.3000      1571
  48.3200      1605
  48.3400      1710
  48.3600      1798
  48.3800      1775
  48.4000      1922
  48.4200      1901
  48.4400      2047
  48.4600      2171
  48.4800      2188
  48.5000      2411
  48.5200      2506
  48.5400      2481
  48.5600      2758
  48.5800      2775
  48.6000      2851
  48.6200      2891
  48.6400      2877
  48.6600      2985
  48.6800      3004
  48.7000      3094
  48.7200      3010
  48.7400      3007
  48.7600      3017
  48.7800      2869
  48.8000      2884
  48.8200      2776
  48.8400      2700
  48.8600      2653
  48.8800      2595
  48.9000      2482
  48.9200      2326
  48.9400      2235
  48.9600      2028
  48.9800      2010
  49.0000      1849
  49.0200      1782
  49.0400      1673
  49.0600      1647
  49.0800      1507
  49.1000      1431
  49.1200      1332
  49.1400      1357
  49.1600      1276
  49.1800      1182
  49.2000      1151
  49.2200      1116
  49.2400      1023
  49.2600      1083
  49.2800      1030
  49.3000       946
  49.3200       968
  49.3400       859
  49.3600       899
  49.3800       858
  49.4000       846
  49.4200       852
  49.4400       879
  49.4600       826
  49.4800       827
  49.5000       790
  49.5200       790
  49.5400       785
  49.5600       773
  49.5800       788
  49.6000       780
  49.6200       790
  49.6400       746
  49.6600       739
  49.6800       766
  49.7000       737
  49.7200       717
  49.7400       748
  49.7600       712
  49.7800       725
  49.8000       689
  49.8200       676
  49.8400       703
  49.8600       706
  49.8800       726
  49.9000       704
  49.9200       728
  49.9400       699
  49.9600       676
  49.9800       698
  50.0000       673
  50.0200       713
  50.0400       747
  50.0600       733
  50.0800       667
  50.1000       714
  50.1200       679
  50.1400       653
  50.1600       686
  50.1800       677
  50.2000       685
  50.2200       714
  50.2400       656
  50.2600       615
  50.2800       652
  50.3000       667
  50.3200       677
  50.3400       717
  50.3600       679
  50.3800       681
  50.4000       668
  50.4200       689
  50.4400       630
  50.4600       662
  50.4800       672
  50.5000       677
  50.5200       683
  50.5400       645
  50.5600       687
  50.5800       667
  50.6000       724
  50.6200       677
  50.6400       641
  50.6600       627
  50.6800       681
  50.7000       655
  50.7200       690
  50.7400       669
  50.7600       659
  50.7800       670
  50.8000       634
  50.8200       642
  50.8400       651
  50.8600       630
  50.8800       662
  50.9000       671
  50.9200       711
  50.9400       660
  50.9600       649
  50.9800       668
  51.0000       650
  51.0200       655
  51.0400       689
  51.0600       674
  51.0800       652
  51.1000       689
  51.1200       688
  51.1400       664
  51.1600       627
  51.1800       632
  51.2000       685
  51.2200       665
  51.2400       709
  51.2600       665
  51.2800       630
  51.3000       620
  51.3200       676
  51.3400       658
  51.3600       649
  51.3800       640
  51.4000       633
  51.4200       662
  51.4400       671
  51.4600       653
  51.4800       688
  51.5000       659
  51.5200       634
  51.5400       644
  51.5600       636
  51.5800       675
  51.6000       602
  51.6200       616
  51.6400       645
  51.6600       669
  51.6800       629
  51.7000       674
  51.7200       686
  51.7400       694
  51.7600       620
  51.7800       650
  51.8000       643
  51.8200       669
  51.8400       696
  51.8600       664
  51.8800       687
  51.9000       649
  51.9200       708
  51.9400       638
  51.9600       625
  51.9800       649
  52.0000       639
  52.0200       671
  52.0400       686
  52.0600       655
  52.0800       664
  52.1000       652
  52.1200       637
  52.1400       669
  52.1600       647
  52.1800       579
  52.2000       706
  52.2200       628
  52.2400       691
  52.2600       642
  52.2800       640
  52.3000       667
  52.3200       716
  52.3400       659
  52.3600       668
  52.3800       705
  52.4000       639
  52.4200       700
  52.4400       684
  52.4600       681
  52.4800       671
  52.5000       675
  52.5200       672
  52.5400       678
  52.5600       676
  52.5800       651
  52.6000       687
  52.6200       646
  52.6400       663
  52.6600       691
  52.6800       628
  52.7000       668
  52.7200       652
  52.7400       681
  52.7600       634
  52.7800       634
  52.8000       696
  52.8200       663
  52.8400       629
  52.8600       665
  52.8800       682
  52.9000       659
  52.9200       654
  52.9400       661
  52.9600       662
  52.9800       680
  53.0000       678
  53.0200       675
  53.0400       672
  53.0600       682
  53.0800       697
  53.1000       653
  53.1200       608
  53.1400       680
  53.1600       642
  53.1800       685
  53.2000       661
  53.2200       706
  53.2400       647
  53.2600       671
  53.2800       677
  53.3000       643
  53.3200       666
  53.3400       664
  53.3600       676
  53.3800       665
  53.4000       680
  53.4200       678
  53.4400       715
  53.4600       664
  53.4800       678
  53.5000       630
  53.5200       703
  53.5400       692
  53.5600       656
  53.5800       665
  53.6000       674
  53.6200       637
  53.6400       638
  53.6600       664
  53.6800       731
  53.7000       648
  53.7200       653
  53.7400       678
  53.7600       708
  53.7800       702
  53.8000       688
  53.8200       682
  53.8400       698
  53.8600       701
  53.8800       651
  53.9000       729
  53.9200       682
  53.9400       714
  53.9600       693
  53.9800       686
  54.0000       636
  54.0200       700
  54.0400       694
  54.0600       648
  54.0800       642
  54.1000       715
  54.1200       734
  54.1400       641
  54.1600       655
  54.1800       669
  54.2000       687
  54.2200       675
  54.2400       716
  54.2600       649
  54.2800       744
  54.3000       705
  54.3200       632
  54.3400       701
  54.3600       668
  54.3800       755
  54.4000       701
  54.4200       729
  54.4400       680
  54.4600       730
  54.4800       716
  54.5000       680
  54.5200       696
  54.5400       683
  54.5600       699
  54.5800       731
  54.6000       737
  54.6200       748
  54.6400       714
  54.6600       701
  54.6800       699
  54.7000       721
  54.7200       666
  54.7400       742
  54.7600       733
  54.7800       724
  54.8000       726
  54.8200       719
  54.8400       693
  54.8600       745
  54.8800       721
  54.9000       752
  54.9200       731
  54.9400       781
  54.9600       691
  54.9800       722
  55.0000       719
  55.0200       740
  55.0400       722
  55.0600       709
  55.0800       739
  55.1000       700
  55.1200       725
  55.1400       730
  55.1600       753
  55.1800       713
  55.2000       680
  55.2200       675
  55.2400       699
  55.2600       688
  55.2800       736
  55.3000       697
  55.3200       759
  55.3400       655
  55.3600       706
  55.3800       668
  55.4000       744
  55.4200       685
  55.4400       699
  55.4600       702
  55.4800       703
  55.5000       639
  55.5200       666
  55.5400       676
  55.5600       665
  55.5800       698
  55.6000       698
  55.6200       700
  55.6400       682
  55.6600       703
  55.6800       706
  55.7000       724
  55.7200       705
  55.7400       660
  55.7600       649
  55.7800       691
  55.8000       694
  55.8200       682
  55.8400       681
  55.8600       723
  55.8800       721
  55.9000       672
  55.9200       692
  55.9400       725
  55.9600       682
  55.9800       674
  56.0000       658
  56.0200       678
  56.0400       668
  56.0600       697
  56.0800       705
  56.1000       634
  56.1200       636
  56.1400       641
  56.1600       695
  56.1800       720
  56.2000       667
  56.2200       654
  56.2400       699
  56.2600       644
  56.2800       690
  56.3000       694
  56.3200       697
  56.3400       646
  56.3600       662
  56.3800       713
  56.4000       698
  56.4200       711
  56.4400       711
  56.4600       690
  56.4800       690
  56.5000       683
  56.5200       664
  56.5400       663
  56.5600       695
  56.5800       690
  56.6000       644
  56.6200       658
  56.6400       675
  56.6600       650
  56.6800       700
  56.7000       694
  56.7200       672
  56.7400       657
  56.7600       697
  56.7800       696
  56.8000       673
  56.8200       668
  56.8400       730
  56.8600       714
  56.8800       684
  56.9000       679
  56.9200       722
  56.9400       701
  56.9600       705
  56.9800       722
  57.0000       657
  57.0200       660
  57.0400       631
  57.0600       706
  57.0800       650
  57.1000       658
  57.1200       677
  57.1400       696
  57.1600       651
  57.1800       666
  57.2000       646
  57.2200       690
  57.2400       694
  57.2600       702
  57.2800       700
  57.3000       650
  57.3200       680
  57.3400       686
  57.3600       638
  57.3800       658
  57.4000       695
  57.4200       628
  57.4400       628
  57.4600       668
  57.4800       700
  57.5000       690
  57.5200       686
  57.5400       680
  57.5600       659
  57.5800       688
  57.6000       726
  57.6200       703
  57.6400       674
  57.6600       699
  57.6800       715
  57.7000       664
  57.7200       716
  57.7400       677
  57.7600       670
  57.7800       647
  57.8000       714
  57.8200       667
  57.8400       701
  57.8600       664
  57.8800       737
  57.9000       698
  57.9200       678
  57.9400       694
  57.9600       643
  57.9800       664
  58.0000       657
  58.0200       711
  58.0400       705
  58.0600       684
  58.0800       693
  58.1000       677
  58.1200       655
  58.1400       657
  58.1600       704
  58.1800       649
  58.2000       671
  58.2200       659
  58.2400       702
  58.2600       620
  58.2800       671
  58.3000       692
  58.3200       696
  58.3400       657
  58.3600       725
  58.3800       695
  58.4000       722
  58.4200       700
  58.4400       665
  58.4600       708
  58.4800       658
  58.5000       688
  58.5200       667
  58.5400       688
  58.5600       687
  58.5800       700
  58.6000       635
  58.6200       684
  58.6400       691
  58.6600       700
  58.6800       650
  58.7000       650
  58.7200       698
  58.7400       716
  58.7600       686
  58.7800       722
  58.8000       676
  58.8200       692
  58.8400       655
  58.8600       697
  58.8800       681
  58.9000       675
  58.9200       663
  58.9400       704
  58.9600       707
  58.9800       634
  59.0000       687
  59.0200       646
  59.0400       688
  59.0600       682
  59.0800       697
  59.1000       663
  59.1200       692
  59.1400       685
  59.1600       683
  59.1800       674
  59.2000       689
  59.2200       703
  59.2400       710
  59.2600       727
  59.2800       697
  59.3000       649
  59.3200       658
  59.3400       691
  59.3600       700
  59.3800       673
  59.4000       702
  59.4200       694
  59.4400       706
  59.4600       669
  59.4800       699
  59.5000       712
  59.5200       693
  59.5400       678
  59.5600       680
  59.5800       707
  59.6000       675
  59.6200       716
  59.6400       691
  59.6600       671
  59.6800       685
  59.7000       682
  59.7200       700
  59.7400       685
  59.7600       689
  59.7800       687
  59.8000       691
  59.8200       673
  59.8400       742
  59.8600       655
  59.8800       687
  59.9000       723
  59.9200       753
  59.9400       676
  59.9600       685
  59.9800       661
  60.0000       672
  60.0200       666
  60.0400       676
  60.0600       664
  60.0800       692
  60.1000       662
  60.1200       716
  60.1400       687
  60.1600       705
  60.1800       678
  60.2000       683
  60.2200       701
  60.2400       790
  60.2600       687
  60.2800       704
  60.3000       761
  60.3200       763
  60.3400       731
  60.3600       749
  60.3800       742
  60.4000       734
  60.4200       676
  60.4400       722
  60.4600       749
  60.4800       742
  60.5000       700
  60.5200       747
  60.5400       782
  60.5600       662
  60.5800       749
  60.6000       710
  60.6200       708
  60.6400       683
  60.6600       726
  60.6800       755
  60.7000       721
  60.7200       716
  60.7400       772
  60.7600       767
  60.7800       735
  60.8000       699
  60.8200       790
  60.8400       709
  60.8600       753
  60.8800       747
  60.9000       725
  60.9200       730
  60.9400       733
  60.9600       730
  60.9800       710
  61.0000       730
  61.0200       721
  61.0400       678
  61.0600       716
  61.0800       710
  61.1000       683
  61.1200       692
  61.1400       769
  61.1600       759
  61.1800       743
  61.2000       707
  61.2200       723
  61.2400       721
  61.2600       686
  61.2800       699
  61.3000       732
  61.3200       737
  61.3400       712
  61.3600       714
  61.3800       686
  61.4000       691
  61.4200       682
  61.4400       729
  61.4600       719
  61.4800       724
  61.5000       722
  61.5200       731
  61.5400       737
  61.5600       718
  61.5800       707
  61.6000       683
  61.6200       713
  61.6400       694
  61.6600       681
  61.6800       710
  61.7000       711
  61.7200       700
  61.7400       742
  61.7600       711
  61.7800       746
  61.8000       689
  61.8200       697
  61.8400       698
  61.8600       696
  61.8800       740
  61.9000       712
  61.9200       671
  61.9400       686
  61.9600       681
  61.9800       721
  62.0000       687
  62.0200       685
  62.0400       668
  62.0600       682
  62.0800       727
  62.1000       667
  62.1200       724
  62.1400       717
  62.1600       723
  62.1800       720
  62.2000       696
  62.2200       695
  62.2400       661
  62.2600       702
  62.2800       690
  62.3000       702
  62.3200       695
  62.3400       696
  62.3600       718
  62.3800       731
  62.4000       709
  62.4200       693
  62.4400       691
  62.4600       657
  62.4800       638
  62.5000       698
  62.5200       696
  62.5400       723
  62.5600       668
  62.5800       686
  62.6000       649
  62.6200       695
  62.6400       725
  62.6600       709
  62.6800       711
  62.7000       690
  62.7200       734
  62.7400       720
  62.7600       705
  62.7800       726
  62.8000       740
  62.8200       692
  62.8400       683
  62.8600       657
  62.8800       680
  62.9000       759
  62.9200       644
  62.9400       691
  62.9600       688
  62.9800       745
  63.0000       665
  63.0200       690
  63.0400       692
  63.0600       717
  63.0800       696
  63.1000       667
  63.1200       649
  63.1400       688
  63.1600       718
  63.1800       706
  63.2000       727
  63.2200       669
  63.2400       693
  63.2600       692
  63.2800       687
  63.3000       639
  63.3200       713
  63.3400       700
  63.3600       710
  63.3800       732
  63.4000       652
  63.4200       713
  63.4400       677
  63.4600       711
  63.4800       713
  63.5000       668
  63.5200       700
  63.5400       662
  63.5600       721
  63.5800       686
  63.6000       684
  63.6200       746
  63.6400       692
  63.6600       697
  63.6800       741
  63.7000       748
  63.7200       689
  63.7400       721
  63.7600       718
  63.7800       728
  63.8000       701
  63.8200       756
  63.8400       664
  63.8600       672
  63.8800       692
  63.9000       717
  63.9200       692
  63.9400       718
  63.9600       694
  63.9800       733
  64.0000       696
  64.0200       728
  64.0400       729
  64.0600       706
  64.0800       707
  64.1000       700
  64.1200       640
  64.1400       706
  64.1600       736
  64.1800       708
  64.2000       712
  64.2200       714
  64.2400       694
  64.2600       704
  64.2800       741
  64.3000       666
  64.3200       756
  64.3400       718
  64.3600       697
  64.3800       727
  64.4000       666
  64.4200       708
  64.4400       688
  64.4600       676
  64.4800       706
  64.5000       725
  64.5200       704
  64.5400       724
  64.5600       677
  64.5800       702
  64.6000       722
  64.6200       685
  64.6400       760
  64.6600       738
  64.6800       740
  64.7000       711
  64.7200       715
  64.7400       772
  64.7600       718
  64.7800       729
  64.8000       691
  64.8200       733
  64.8400       726
  64.8600       727
  64.8800       724
  64.9000       679
  64.9200       689
  64.9400       699
  64.9600       692
  64.9800       713
  65.0000       712
  65.0200       751
  65.0400       720
  65.0600       722
  65.0800       730
  65.1000       684
  65.1200       708
  65.1400       747
  65.1600       702
  65.1800       676
  65.2000       682
  65.2200       705
  65.2400       657
  65.2600       691
  65.2800       713
  65.3000       717
  65.3200       682
  65.3400       696
  65.3600       682
  65.3800       710
  65.4000       751
  65.4200       689
  65.4400       698
  65.4600       723
  65.4800       676
  65.5000       688
  65.5200       700
  65.5400       657
  65.5600       734
  65.5800       664
  65.6000       675
  65.6200       666
  65.6400       707
  65.6600       717
  65.6800       703
  65.7000       710
  65.7200       704
  65.7400       684
  65.7600       688
  65.7800       683
  65.8000       714
  65.8200       724
  65.8400       690
  65.8600       676
  65.8800       719
  65.9000       710
  65.9200       722
  65.9400       679
  65.9600       695
  65.9800       689
  66.0000       714
  66.0200       711
  66.0400       693
  66.0600       729
  66.0800       714
  66.1000       663
  66.1200       726
  66.1400       725
  66.1600       717
  66.1800       701
  66.2000       700
  66.2200       707
  66.2400       683
  66.2600       704
  66.2800       748
  66.3000       688
  66.3200       740
  66.3400       749
  66.3600       707
  66.3800       711
  66.4000       723
  66.4200       728
  66.4400       677
  66.4600       727
  66.4800       720
  66.5000       700
  66.5200       695
  66.5400       663
  66.5600       707
  66.5800       722
  66.6000       702
  66.6200       694
  66.6400       708
  66.6600       720
  66.6800       684
  66.7000       752
  66.7200       706
  66.7400       697
  66.7600       682
  66.7800       674
  66.8000       691
  66.8200       706
  66.8400       711
  66.8600       713
  66.8800       687
  66.9000       689
  66.9200       708
  66.9400       696
  66.9600       666
  66.9800       690
  67.0000       707
  67.0200       700
  67.0400       721
  67.0600       706
  67.0800       668
  67.1000       662
  67.1200       683
  67.1400       695
  67.1600       715
  67.1800       747
  67.2000       746
  67.2200       678
  67.2400       715
  67.2600       742
  67.2800       702
  67.3000       662
  67.3200       757
  67.3400       682
  67.3600       712
  67.3800       700
  67.4000       714
  67.4200       684
  67.4400       748
  67.4600       753
  67.4800       734
  67.5000       705
  67.5200       746
  67.5400       691
  67.5600       644
  67.5800       679
  67.6000       721
  67.6200       715
  67.6400       718
  67.6600       706
  67.6800       708
  67.7000       634
  67.7200       712
  67.7400       664
  67.7600       705
  67.7800       714
  67.8000       734
  67.8200       740
  67.8400       716
  67.8600       704
  67.8800       722
  67.9000       767
  67.9200       725
  67.9400       693
  67.9600       700
  67.9800       690
  68.0000       681
  68.0200       721
  68.0400       722
  68.0600       739
  68.0800       686
  68.1000       772
  68.1200       691
  68.1400       742
  68.1600       760
  68.1800       748
  68.2000       695
  68.2200       708
  68.2400       706
  68.2600       704
  68.2800       709
  68.3000       742
  68.3200       757
  68.3400       725
  68.3600       750
  68.3800       701
  68.4000       701
  68.4200       683
  68.4400       690
  68.4600       710
  68.4800       634
  68.5000       705
  68.5200       750
  68.5400       718
  68.5600       686
  68.5800       734
  68.6000       767
  68.6200       736
  68.6400       745
  68.6600       730
  68.6800       748
  68.7000       690
  68.7200       700
  68.7400       736
  68.7600       711
  68.7800       706
  68.8000       739
  68.8200       710
  68.8400       742
  68.8600       660
  68.8800       711
  68.9000       711
  68.9200       732
  68.9400       702
  68.9600       726
  68.9800       721
  69.0000       737
  69.0200       677
  69.0400       747
  69.0600       716
  69.0800       729
  69.1000       729
  69.1200       728
  69.1400       698
  69.1600       728
  69.1800       715
  69.2000       673
  69.2200       757
  69.2400       676
  69.2600       710
  69.2800       719
  69.3000       766
  69.3200       744
  69.3400       693
  69.3600       733
  69.3800       721
  69.4000       720
  69.4200       662
  69.4400       704
  69.4600       681
  69.4800       723
  69.5000       710
  69.5200       743
  69.5400       712
  69.5600       712
  69.5800       723
  69.6000       710
  69.6200       780
  69.6400       724
  69.6600       757
  69.6800       739
  69.7000       720
  69.7200       718
  69.7400       727
  69.7600       722
  69.7800       723
  69.8000       698
  69.8200       757
  69.8400       758
  69.8600       738
  69.8800       704
  69.9000       718
  69.9200       737
  69.9400       782
  69.9600       762
  69.9800       741
  70.0000       745
  70.0200       760
  70.0400       772
  70.0600       720
  70.0800       786
  70.1000       698
  70.1200       751
  70.1400       725
  70.1600       759
  70.1800       734
  70.2000       762
  70.2200       761
  70.2400       797
  70.2600       752
  70.2800       807
  70.3000       779
  70.3200       762
  70.3400       753
  70.3600       755
  70.3800       747
  70.4000       792
  70.4200       791
  70.4400       788
  70.4600       795
  70.4800       798
  70.5000       794
  70.5200       786
  70.5400       828
  70.5600       816
  70.5800       770
  70.6000       852
  70.6200       874
  70.6400       845
  70.6600       859
  70.6800       870
  70.7000       848
  70.7200       907
  70.7400       859
  70.7600       841
  70.7800       917
  70.8000       899
  70.8200       962
  70.8400       957
  70.8600       951
  70.8800      1010
  70.9000       968
  70.9200      1090
  70.9400      1025
  70.9600      1015
  70.9800      1043
  71.0000      1134
  71.0200      1165
  71.0400      1173
  71.0600      1179
  71.0800      1146
  71.1000      1261
  71.1200      1254
  71.1400      1279
  71.1600      1297
  71.1800      1322
  71.2000      1344
  71.2200      1350
  71.2400      1355
  71.2600      1405
  71.2800      1410
  71.3000      1385
  71.3200      1408
  71.3400      1429
  71.3600      1438
  71.3800      1384
  71.4000      1388
  71.4200      1320
  71.4400      1350
  71.4600      1326
  71.4800      1306
  71.5000      1241
  71.5200      1260
  71.5400      1194
  71.5600      1232
  71.5800      1225
  71.6000      1130
  71.6200      1157
  71.6400      1141
  71.6600      1034
  71.6800       995
  71.7000      1029
  71.7200       950
  71.7400       997
  71.7600       966
  71.7800       916
  71.8000       924
  71.8200       858
  71.8400       875
  71.8600       886
  71.8800       824
  71.9000       909
  71.9200       825
  71.9400       857
  71.9600       860
  71.9800       764
  72.0000       817
  72.0200       793
  72.0400       778
  72.0600       832
  72.0800       772
  72.1000       774
  72.1200       805
  72.1400       741
  72.1600       787
  72.1800       777
  72.2000       757
  72.2200       786
  72.2400       791
  72.2600       720
  72.2800       741
  72.3000       776
  72.3200       747
  72.3400       788
  72.3600       756
  72.3800       774
  72.4000       727
  72.4200       726
  72.4400       755
  72.4600       751
  72.4800       739
  72.5000       756
  72.5200       753
  72.5400       704
  72.5600       717
  72.5800       771
  72.6000       743
  72.6200       810
  72.6400       692
  72.6600       747
  72.6800       725
  72.7000       720
  72.7200       700
  72.7400       740
  72.7600       752
  72.7800       718
  72.8000       749
  72.8200       719
  72.8400       736
  72.8600       746
  72.8800       743
  72.9000       740
  72.9200       730
  72.9400       732
  72.9600       738
  72.9800       711
  73.0000       675
  73.0200       756
  73.0400       718
  73.0600       728
  73.0800       715
  73.1000       719
  73.1200       748
  73.1400       720
  73.1600       747
  73.1800       723
  73.2000       682
  73.2200       747
  73.2400       683
  73.2600       731
  73.2800       762
  73.3000       766
  73.3200       678
  73.3400       722
  73.3600       787
  73.3800       715
  73.4000       701
  73.4200       752
  73.4400       699
  73.4600       735
  73.4800       672
  73.5000       718
  73.5200       740
  73.5400       742
  73.5600       727
  73.5800       701
  73.6000       713
  73.6200       692
  73.6400       729
  73.6600       731
  73.6800       713
  73.7000       732
  73.7200       723
  73.7400       716
  73.7600       718
  73.7800       719
  73.8000       755
  73.8200       753
  73.8400       704
  73.8600       736
  73.8800       711
  73.9000       707
  73.9200       710
  73.9400       733
  73.9600       749
  73.9800       716
  74.0000       735
  74.0200       743
  74.0400       745
  74.0600       766
  74.0800       770
  74.1000       715
  74.1200       720
  74.1400       741
  74.1600       666
  74.1800       737
  74.2000       701
  74.2200       686
  74.2400       733
  74.2600       743
  74.2800       719
  74.3000       716
  74.3200       686
  74.3400       717
  74.3600       675
  74.3800       678
  74.4000       762
  74.4200       712
  74.4400       767
  74.4600       761
  74.4800       704
  74.5000       741
  74.5200       767
  74.5400       683
  74.5600       724
  74.5800       712
  74.6000       694
  74.6200       681
  74.6400       679
  74.6600       755
  74.6800       677
  74.7000       730
  74.7200       729
  74.7400       677
  74.7600       724
  74.7800       745
  74.8000       698
  74.8200       680
  74.8400       714
  74.8600       739
  74.8800       733
  74.9000       749
  74.9200       734
  74.9400       738
  74.9600       757
  74.9800       754
  75.0000       738
  75.0200       741
  75.0400       726
  75.0600       729
  75.0800       701
  75.1000       718
  75.1200       726
  75.1400       716
  75.1600       735
  75.1800       719
  75.2000       781
  75.2200       729
  75.2400       789
  75.2600       741
  75.2800       734
  75.3000       787
  75.3200       756
  75.3400       719
  75.3600       680
  75.3800       728
  75.4000       759
  75.4200       745
  75.4400       716
  75.4600       819
  75.4800       738
  75.5000       762
  75.5200       695
  75.5400       698
  75.5600       746
  75.5800       749
  75.6000       822
  75.6200       748
  75.6400       743
  75.6600       771
  75.6800       720
  75.7000       696
  75.7200       752
  75.7400       744
  75.7600       759
  75.7800       741
  75.8000       762
  75.8200       710
  75.8400       756
  75.8600       743
  75.8800       756
  75.9000       773
  75.9200       759
  75.9400       712
  75.9600       803
  75.9800       773
  76.0000       732
  76.0200       778
  76.0400       760
  76.0600       827
  76.0800       735
  76.1000       775
  76.1200       756
  76.1400       735
  76.1600       797
  76.1800       799
  76.2000       832
  76.2200       815
  76.2400       807
  76.2600       804
  76.2800       756
  76.3000       726
  76.3200       743
  76.3400       719
  76.3600       779
  76.3800       743
  76.4000       757
  76.4200       775
  76.4400       734
  76.4600       749
  76.4800       749
  76.5000       807
  76.5200       756
  76.5400       788
  76.5600       740
  76.5800       808
  76.6000       733
  76.6200       798
  76.6400       770
  76.6600       745
  76.6800       742
  76.7000       688
  76.7200       738
  76.7400       729
  76.7600       798
  76.7800       774
  76.8000       720
  76.8200       748
  76.8400       750
  76.8600       765
  76.8800       755
  76.9000       745
  76.9200       763
  76.9400       706
  76.9600       765
  76.9800       732
  77.0000       703
  77.0200       776
  77.0400       776
  77.0600       756
  77.0800       752
  77.1000       761
  77.1200       785
  77.1400       780
  77.1600       714
  77.1800       708
  77.2000       733
  77.2200       748
  77.2400       725
  77.2600       642
  77.2800       766
  77.3000       709
  77.3200       746
  77.3400       742
  77.3600       717
  77.3800       807
  77.4000       767
  77.4200       768
  77.4400       757
  77.4600       739
  77.4800       748
  77.5000       702
  77.5200       765
  77.5400       719
  77.5600       757
  77.5800       745
  77.6000       765
  77.6200       750
  77.6400       713
  77.6600       790
  77.6800       765
  77.7000       733
  77.7200       722
  77.7400       780
  77.7600       747
  77.7800       773
  77.8000       732
  77.8200       748
  77.8400       730
  77.8600       730
  77.8800       730
  77.9000       741
  77.9200       691
  77.9400       722
  77.9600       778
  77.9800       746
  78.0000       754
  78.0200       778
  78.0400       721
  78.0600       733
  78.0800       742
  78.1000       729
  78.1200       736
  78.1400       736
  78.1600       725
  78.1800       736
  78.2000       734
  78.2200       794
  78.2400       716
  78.2600       714
  78.2800       697
  78.3000       765
  78.3200       706
  78.3400       759
  78.3600       751
  78.3800       770
  78.4000       732
  78.4200       729
  78.4400       728
  78.4600       729
  78.4800       733
  78.5000       768
  78.5200       742
  78.5400       784
  78.5600       696
  78.5800       747
  78.6000       730
  78.6200       743
  78.6400       666
  78.6600       699
  78.6800       783
  78.7000       732
  78.7200       745
  78.7400       733
  78.7600       733
  78.7800       705
  78.8000       693
  78.8200       741
  78.8400       764
  78.8600       774
  78.8800       725
  78.9000       717
  78.9200       689
  78.9400       741
  78.9600       759
  78.9800       702
  79.0000       732
  79.0200       736
  79.0400       786
  79.0600       741
  79.0800       728
  79.1000       697
  79.1200       728
  79.1400       751
  79.1600       690
  79.1800       724
  79.2000       753
  79.2200       763
  79.2400       684
  79.2600       700
  79.2800       761
  79.3000       723
  79.3200       730
  79.3400       714
  79.3600       784
  79.3800       724
  79.4000       691
  79.4200       718
  79.4400       686
  79.4600       732
  79.4800       746
  79.5000       745
  79.5200       802
  79.5400       733
  79.5600       731
  79.5800       702
  79.6000       735
  79.6200       735
  79.6400       703
  79.6600       748
  79.6800       725
  79.7000       752
  79.7200       808
  79.7400       753
  79.7600       744
  79.7800       756
  79.8000       719
  79.8200       647
  79.8400       711
  79.8600       718
  79.8800       709
  79.9000       752
  79.9200       748
  79.9400       762
  79.9600       778
  79.9800       724
  80.0000       758
  80.0200       745
  80.0400       740
  80.0600       733
  80.0800       767
  80.1000       722
  80.1200       766
  80.1400       725
  80.1600       732
  80.1800       797
  80.2000       771
  80.2200       726
  80.2400       728
  80.2600       734
  80.2800       732
  80.3000       761
  80.3200       690
  80.3400       748
  80.3600       672
  80.3800       782
  80.4000       730
  80.4200       736
  80.4400       759
  80.4600       796
  80.4800       752
  80.5000       729
  80.5200       749
  80.5400       771
  80.5600       799
  80.5800       743
  80.6000       757
  80.6200       741
  80.6400       729
  80.6600       746
  80.6800       795
  80.7000       799
  80.7200       726
  80.7400       721
  80.7600       773
  80.7800       748
  80.8000       726
  80.8200       727
  80.8400       746
  80.8600       753
  80.8800       760
  80.9000       751
  80.9200       758
  80.9400       762
  80.9600       753
  80.9800       757
  81.0000       823
  81.0200       818
  81.0400       726
  81.0600       723
  81.0800       736
  81.1000       805
  81.1200       752
  81.1400       800
  81.1600       745
  81.1800       765
  81.2000       762
  81.2200       754
  81.2400       803
  81.2600       816
  81.2800       784
  81.3000       828
  81.3200       798
  81.3400       769
  81.3600       774
  81.3800       778
  81.4000       761
  81.4200       784
  81.4400       760
  81.4600       750
  81.4800       816
  81.5000       735
  81.5200       800
  81.5400       747
  81.5600       804
  81.5800       765
  81.6000       743
  81.6200       753
  81.6400       711
  81.6600       781
  81.6800       746
  81.7000       760
  81.7200       797
  81.7400       757
  81.7600       722
  81.7800       733
  81.8000       708
  81.8200       733
  81.8400       777
  81.8600       728
  81.8800       767
  81.9000       766
  81.9200       839
  81.9400       758
  81.9600       742
  81.9800       797
  82.0000       753
  82.0200       749
  82.0400       732
  82.0600       744
  82.0800       747
  82.1000       816
  82.1200       740
  82.1400       735
  82.1600       750
  82.1800       725
  82.2000       800
  82.2200       805
  82.2400       784
  82.2600       781
  82.2800       742
  82.3000       801
  82.3200       741
  82.3400       746
  82.3600       794
  82.3800       748
  82.4000       739
  82.4200       769
  82.4400       753
  82.4600       728
  82.4800       773
  82.5000       706
  82.5200       790
  82.5400       747
  82.5600       778
  82.5800       788
  82.6000       703
  82.6200       768
  82.6400       800
  82.6600       761
  82.6800       782
  82.7000       791
  82.7200       758
  82.7400       710
  82.7600       698
  82.7800       704
  82.8000       771
  82.8200       823
  82.8400       774
  82.8600       741
  82.8800       743
  82.9000       708
  82.9200       765
  82.9400       750
  82.9600       770
  82.9800       726
  83.0000       752
  83.0200       759
  83.0400       705
  83.0600       752
  83.0800       779
  83.1000       770
  83.1200       766
  83.1400       730
  83.1600       751
  83.1800       826
  83.2000       768
  83.2200       725
  83.2400       692
  83.2600       752
  83.2800       780
  83.3000       794
  83.3200       707
  83.3400       709
  83.3600       802
  83.3800       799
  83.4000       742
  83.4200       715
  83.4400       776
  83.4600       750
  83.4800       753
  83.5000       720
  83.5200       748
  83.5400       713
  83.5600       707
  83.5800       762
  83.6000       785
  83.6200       778
  83.6400       770
  83.6600       733
  83.6800       749
  83.7000       764
  83.7200       757
  83.7400       785
  83.7600       769
  83.7800       751
  83.8000       773
  83.8200       752
  83.8400       694
  83.8600       726
  83.8800       755
  83.9000       754
  83.9200       755
  83.9400       735
  83.9600       756
  83.9800       745
  84.0000       760
  84.0200       723
  84.0400       773
  84.0600       713
  84.0800       780
  84.1000       810
  84.1200       744
  84.1400       729
  84.1600       774
  84.1800       757
  84.2000       729
  84.2200       769
  84.2400       756
  84.2600       800
  84.2800       782
  84.3000       787
  84.3200       769
  84.3400       762
  84.3600       772
  84.3800       756
  84.4000       775
  84.4200       749
  84.4400       803
  84.4600       804
  84.4800       736
  84.5000       753
  84.5200       784
  84.5400       772
  84.5600       813
  84.5800       776
  84.6000       799
  84.6200       751
  84.6400       789
  84.6600       792
  84.6800       797
  84.7000       794
  84.7200       822
  84.7400       742
  84.7600       829
  84.7800       780
  84.8000       794
  84.8200       862
  84.8400       784
  84.8600       828
  84.8800       843
  84.9000       814
  84.9200       858
  84.9400       825
  84.9600       828
  84.9800       867
  85.0000       826
  85.0200       869
  85.0400       839
  85.0600       876
  85.0800       884
  85.1000       873
  85.1200       870
  85.1400       817
  85.1600       861
  85.1800       868
  85.2000       854
  85.2200       903
  85.2400       895
  85.2600       902
  85.2800       922
  85.3000       947
  85.3200       928
  85.3400       966
  85.3600       921
  85.3800       937
  85.4000      1020
  85.4200       972
  85.4400       950
  85.4600       981
  85.4800      1040
  85.5000      1046
  85.5200      1046
  85.5400      1059
  85.5600      1068
  85.5800      1084
  85.6000      1153
  85.6200      1199
  85.6400      1114
  85.6600      1209
  85.6800      1146
  85.7000      1238
  85.7200      1273
  85.7400      1298
  85.7600      1215
  85.7800      1289
  85.8000      1334
  85.8200      1339
  85.8400      1346
  85.8600      1364
  85.8800      1374
  85.9000      1396
  85.9200      1424
  85.9400      1401
  85.9600      1445
  85.9800      1439
  86.0000      1470
  86.0200      1513
  86.0400      1502
  86.0600      1451
  86.0800      1515
  86.1000      1535
  86.1200      1496
  86.1400      1469
  86.1600      1554
  86.1800      1516
  86.2000      1565
  86.2200      1496
  86.2400      1554
  86.2600      1499
  86.2800      1505
  86.3000      1491
  86.3200      1431
  86.3400      1414
  86.3600      1423
  86.3800      1340
  86.4000      1353
  86.4200      1344
  86.4400      1269
  86.4600      1256
  86.4800      1240
  86.5000      1297
  86.5200      1249
  86.5400      1182
  86.5600      1151
  86.5800      1179
  86.6000      1105
  86.6200      1085
  86.6400      1099
  86.6600      1067
  86.6800      1079
  86.7000       969
  86.7200      1060
  86.7400      1016
  86.7600      1018
  86.7800       953
  86.8000       959
  86.8200       996
  86.8400       895
  86.8600       932
  86.8800       947
  86.9000       892
  86.9200       926
  86.9400       894
  86.9600       862
  86.9800       849
  87.0000       842
  87.0200       821
  87.0400       853
  87.0600       838
  87.0800       850
  87.1000       821
  87.1200       853
  87.1400       818
  87.1600       848
  87.1800       776
  87.2000       788
  87.2200       792
  87.2400       834
  87.2600       810
  87.2800       844
  87.3000       812
  87.3200       747
  87.3400       785
  87.3600       785
  87.3800       765
  87.4000       802
  87.4200       794
  87.4400       773
  87.4600       799
  87.4800       795
  87.5000       788
  87.5200       767
  87.5400       749
  87.5600       752
  87.5800       774
  87.6000       723
  87.6200       765
  87.6400       775
  87.6600       788
  87.6800       778
  87.7000       778
  87.7200       778
  87.7400       813
  87.7600       752
  87.7800       690
  87.8000       748
  87.8200       724
  87.8400       788
  87.8600       808
  87.8800       733
  87.9000       816
  87.9200       751
  87.9400       732
  87.9600       740
  87.9800       740
  88.0000       748
  88.0200       775
  88.0400       764
  88.0600       729
  88.0800       746
  88.1000       790
  88.1200       719
  88.1400       714
  88.1600       748
  88.1800       728
  88.2000       775
  88.2200       765
  88.2400       778
  88.2600       738
  88.2800       731
  88.3000       717
  88.3200       725
  88.3400       794
  88.3600       765
  88.3800       725
  88.4000       712
  88.4200       807
  88.4400       741
  88.4600       757
  88.4800       777
  88.5000       738
  88.5200       724
  88.5400       782
  88.5600       770
  88.5800       755
  88.6000       837
  88.6200       743
  88.6400       714
  88.6600       757
  88.6800       778
  88.7000       737
  88.7200       717
  88.7400       759
  88.7600       798
  88.7800       708
  88.8000       738
  88.8200       762
  88.8400       720
  88.8600       753
  88.8800       764
  88.9000       775
  88.9200       782
  88.9400       706
  88.9600       825
  88.9800       735
  89.0000       748
  89.0200       762
  89.0400       773
  89.0600       723
  89.0800       784
  89.1000       730
  89.1200       781
  89.1400       767
  89.1600       703
  89.1800       741
  89.2000       715
  89.2200       756
  89.2400       765
  89.2600       738
  89.2800       729
  89.3000       734
  89.3200       743
  89.3400       745
  89.3600       713
  89.3800       719
  89.4000       704
  89.4200       724
  89.4400       732
  89.4600       721
  89.4800       743
  89.5000       738
  89.5200       795
  89.5400       754
  89.5600       793
  89.5800       778
  89.6000       762
  89.6200       751
  89.6400       783
  89.6600       755
  89.6800       721
  89.7000       791
  89.7200       718
  89.7400       724
  89.7600       767
  89.7800       727
  89.8000       746
  89.8200       765
  89.8400       732
  89.8600       781
  89.8800       766
  89.9000       725
  89.9200       741
  89.9400       745
  89.9600       778
  89.9800       768
  90.0000       730
  90.0200       760
  90.0400       768
  90.0600       764
  90.0800       785
  90.1000       779
  90.1200       764
  90.1400       775
  90.1600       748
  90.1800       771
  90.2000       724
  90.2200       774
  90.2400       776
  90.2600       784
  90.2800       794
  90.3000       795
  90.3200       837
  90.3400       759
  90.3600       825
  90.3800       796
  90.4000       821
  90.4200       818
  90.4400       831
  90.4600       826
  90.4800       831
  90.5000       876
  90.5200       856
  90.5400       844
  90.5600       849
  90.5800       871
  90.6000       875
  90.6200       835
  90.6400       911
  90.6600       874
  90.6800       916
  90.7000       861
  90.7200       864
  90.7400       916
  90.7600       872
  90.7800       906
  90.8000       940
  90.8200       905
  90.8400       906
  90.8600       998
  90.8800       988
  90.9000       988
  90.9200       951
  90.9400       920
  90.9600       876
  90.9800       989
  91.0000       971
  91.0200      1008
  91.0400       998
  91.0600       991
  91.0800       934
  91.1000       947
  91.1200       976
  91.1400       963
  91.1600       987
  91.1800       991
  91.2000       968
  91.2200       925
  91.2400       931
  91.2600       960
  91.2800       896
  91.3000       927
  91.3200       911
  91.3400       847
  91.3600       914
  91.3800       866
  91.4000       876
  91.4200       881
  91.4400       862
  91.4600       789
  91.4800       806
  91.5000       841
  91.5200       800
  91.5400       887
  91.5600       761
  91.5800       760
  91.6000       859
  91.6200       829
  91.6400       836
  91.6600       826
  91.6800       776
  91.7000       769
  91.7200       763
  91.7400       783
  91.7600       776
  91.7800       758
  91.8000       732
  91.8200       772
  91.8400       734
  91.8600       783
  91.8800       767
  91.9000       820
  91.9200       746
  91.9400       761
  91.9600       740
  91.9800       717
  92.0000       738
  92.0200       739
  92.0400       782
  92.0600       773
  92.0800       724
  92.1000       765
  92.1200       681
  92.1400       743
  92.1600       805
  92.1800       788
  92.2000       775
  92.2200       769
  92.2400       798
  92.2600       771
  92.2800       773
  92.3000       729
  92.3200       705
  92.3400       777
  92.3600       767
  92.3800       712
  92.4000       754
  92.4200       744
  92.4400       737
  92.4600       769
  92.4800       724
  92.5000       742
  92.5200       758
  92.5400       710
  92.5600       749
  92.5800       697
  92.6000       746
  92.6200       771
  92.6400       775
  92.6600       760
  92.6800       674
  92.7000       755
  92.7200       701
  92.7400       765
  92.7600       767
  92.7800       785
  92.8000       722
  92.8200       736
  92.8400       721
  92.8600       708
  92.8800       769
  92.9000       745
  92.9200       726
  92.9400       746
  92.9600       750
  92.9800       720
  93.0000       705
  93.0200       737
  93.0400       715
  93.0600       753
  93.0800       760
  93.1000       769
  93.1200       736
  93.1400       752
  93.1600       785
  93.1800       704
  93.2000       780
  93.2200       728
  93.2400       774
  93.2600       730
  93.2800       742
  93.3000       747
  93.3200       754
  93.3400       755
  93.3600       792
  93.3800       760
  93.4000       736
  93.4200       766
  93.4400       733
  93.4600       750
  93.4800       732
  93.5000       743
  93.5200       731
  93.5400       783
  93.5600       680
  93.5800       768
  93.6000       713
  93.6200       741
  93.6400       714
  93.6600       704
  93.6800       770
  93.7000       762
  93.7200       760
  93.7400       750
  93.7600       737
  93.7800       750
  93.8000       709
  93.8200       770
  93.8400       726
  93.8600       737
  93.8800       711
  93.9000       718
  93.9200       732
  93.9400       715
  93.9600       721
  93.9800       713
  94.0000       780
  94.0200       722
  94.0400       734
  94.0600       771
  94.0800       797
  94.1000       788
  94.1200       741
  94.1400       764
  94.1600       756
  94.1800       757
  94.2000       740
  94.2200       706
  94.2400       736
  94.2600       722
  94.2800       735
  94.3000       782
  94.3200       709
  94.3400       749
  94.3600       725
  94.3800       739
  94.4000       724
  94.4200       756
  94.4400       760
  94.4600       721
  94.4800       712
  94.5000       748
  94.5200       729
  94.5400       705
  94.5600       727
  94.5800       735
  94.6000       758
  94.6200       757
  94.6400       729
  94.6600       794
  94.6800       788
  94.7000       753
  94.7200       832
  94.7400       720
  94.7600       769
  94.7800       752
  94.8000       726
  94.8200       746
  94.8400       751
  94.8600       741
  94.8800       745
  94.9000       758
  94.9200       735
  94.9400       720
  94.9600       776
  94.9800       722
  95.0000       732
  95.0200       768
  95.0400       759
  95.0600       739
  95.0800       745
  95.1000       748
  95.1200       763
  95.1400       733
  95.1600       759
  95.1800       759
  95.2000       794
  95.2200       783
  95.2400       749
  95.2600       778
  95.2800       748
  95.3000       762
  95.3200       781
  95.3400       748
  95.3600       764
  95.3800       744
  95.4000       804
  95.4200       785
  95.4400       775
  95.4600       763
  95.4800       788
  95.5000       765
  95.5200       773
  95.5400       753
  95.5600       767
  95.5800       748
  95.6000       787
  95.6200       702
  95.6400       752
  95.6600       804
  95.6800       781
  95.7000       783
  95.7200       719
  95.7400       701
  95.7600       719
  95.7800       768
  95.8000       779
  95.8200       746
  95.8400       787
  95.8600       791
  95.8800       817
  95.9000       778
  95.9200       826
  95.9400       786
  95.9600       813
  95.9800       747
  96.0000       770
  96.0200       795
  96.0400       808
  96.0600       790
  96.0800       733
  96.1000       795
  96.1200       774
  96.1400       752
  96.1600       776
  96.1800       803
  96.2000       788
  96.2200       753
  96.2400       792
  96.2600       735
  96.2800       778
  96.3000       798
  96.3200       758
  96.3400       775
  96.3600       800
  96.3800       769
  96.4000       709
  96.4200       742
  96.4400       771
  96.4600       777
  96.4800       718
  96.5000       726
  96.5200       737
  96.5400       730
  96.5600       806
  96.5800       752
  96.6000       772
  96.6200       852
  96.6400       762
  96.6600       751
  96.6800       752
  96.7000       804
  96.7200       761
  96.7400       709
  96.7600       746
  96.7800       760
  96.8000       765
  96.8200       721
  96.8400       776
  96.8600       752
  96.8800       747
  96.9000       782
  96.9200       746
  96.9400       764
  96.9600       756
  96.9800       738
  97.0000       744
  97.0200       726
  97.0400       763
  97.0600       759
  97.0800       786
  97.1000       756
  97.1200       762
  97.1400       728
  97.1600       747
  97.1800       777
  97.2000       744
  97.2200       746
  97.2400       735
  97.2600       753
  97.2800       731
  97.3000       737
  97.3200       759
  97.3400       767
  97.3600       803
  97.3800       733
  97.4000       757
  97.4200       773
  97.4400       758
  97.4600       746
  97.4800       743
  97.5000       753
  97.5200       768
  97.5400       792
  97.5600       760
  97.5800       714
  97.6000       735
  97.6200       766
  97.6400       759
  97.6600       738
  97.6800       771
  97.7000       750
  97.7200       784
  97.7400       738
  97.7600       728
  97.7800       788
  97.8000       737
  97.8200       716
  97.8400       730
  97.8600       747
  97.8800       756
  97.9000       772
  97.9200       746
  97.9400       780
  97.9600       753
  97.9800       719
  98.0000       724
  98.0200       777
  98.0400       698
  98.0600       730
  98.0800       712
  98.1000       739
  98.1200       785
  98.1400       771
  98.1600       749
  98.1800       752
  98.2000       787
  98.2200       776
  98.2400       794
  98.2600       752
  98.2800       807
  98.3000       747
  98.3200       780
  98.3400       767
  98.3600       740
  98.3800       723
  98.4000       666
  98.4200       730
  98.4400       778
  98.4600       740
  98.4800       784
  98.5000       731
  98.5200       737
  98.5400       770
  98.5600       761
  98.5800       751
  98.6000       740
  98.6200       745
  98.6400       768
  98.6600       708
  98.6800       769
  98.7000       743
  98.7200       744
  98.7400       755
  98.7600       769
  98.7800       714
  98.8000       765
  98.8200       761
  98.8400       752
  98.8600       674
  98.8800       755
  98.9000       752
  98.9200       787
  98.9400       730
  98.9600       775
  98.9800       807
  99.0000       735
  99.0200       755
  99.0400       731
  99.0600       769
  99.0800       784
  99.1000       765
  99.1200       770
  99.1400       775
  99.1600       781
  99.1800       767
  99.2000       747
  99.2200       740
  99.2400       738
  99.2600       733
  99.2800       761
  99.3000       749
  99.3200       763
  99.3400       805
  99.3600       688
  99.3800       699
  99.4000       746
  99.4200       778
  99.4400       782
  99.4600       744
  99.4800       764
  99.5000       728
  99.5200       753
  99.5400       750
  99.5600       704
  99.5800       829
  99.6000       803
  99.6200       772
  99.6400       775
  99.6600       737
  99.6800       759
  99.7000       748
  99.7200       778
  99.7400       753
  99.7600       762
  99.7800       744
  99.8000       731
  99.8200       771
  99.8400       784
  99.8600       745
  99.8800       802
  99.9000       768
  99.9200       798
  99.9400       808
  99.9600       755
  99.9800       774
 100.0000       729
 100.0200       738
 100.0400       758
 100.0600       780
 100.0800       757
 100.1000       720
 100.1200       772
 100.1400       783
 100.1600       822
 100.1800       752
 100.2000       709
 100.2200       769
 100.2400       772
 100.2600       763
 100.2800       747
 100.3000       818
 100.3200       823
 100.3400       744
 100.3600       815
 100.3800       822
 100.4000       740
 100.4200       765
 100.4400       769
 100.4600       806
 100.4800       764
 100.5000       800
 100.5200       794
 100.5400       803
 100.5600       787
 100.5800       783
 100.6000       829
 100.6200       801
 100.6400       840
 100.6600       779
 100.6800       807
 100.7000       776
 100.7200       812
 100.7400       789
 100.7600       814
 100.7800       787
 100.8000       844
 100.8200       781
 100.8400       780
 100.8600       819
 100.8800       815
 100.9000       790
 100.9200       801
 100.9400       785
 100.9600       785
 100.9800       817
 101.0000       811
 101.0200       744
 101.0400       775
 101.0600       810
 101.0800       814
 101.1000       816
 101.1200       789
 101.1400       753
 101.1600       773
 101.1800       804
 101.2000       803
 101.2200       740
 101.2400       831
 101.2600       802
 101.2800       813
 101.3000       798
 101.3200       814
 101.3400       753
 101.3600       751
 101.3800       793
 101.4000       787
 101.4200       781
 101.4400       793
 101.4600       850
 101.4800       799
 101.5000       794
 101.5200       805
 101.5400       771
 101.5600       804
 101.5800       776
 101.6000       746
 101.6200       771
 101.6400       755
 101.6600       758
 101.6800       757
 101.7000       779
 101.7200       788
 101.7400       777
 101.7600       720
 101.7800       733
 101.8000       724
 101.8200       783
 101.8400       787
 101.8600       792
 101.8800       752
 101.9000       785
 101.9200       779
 101.9400       747
 101.9600       792
 101.9800       747
 102.0000       776
 102.0200       761
 102.0400       728
 102.0600       747
 102.0800       743
 102.1000       751
 102.1200       767
 102.1400       744
 102.1600       784
 102.1800       842
 102.2000       777
 102.2200       793
 102.2400       764
 102.2600       746
 102.2800       763
 102.3000       818
 102.3200       711
 102.3400       715
 102.3600       749
 102.3800       760
 102.4000       757
 102.4200       772
 102.4400       770
 102.4600       743
 102.4800       764
 102.5000       770
 102.5200       765
 102.5400       750
 102.5600       729
 102.5800       767
 102.6000       774
 102.6200       814
 102.6400       806
 102.6600       741
 102.6800       796
 102.7000       733
 102.7200       773
 102.7400       759
 102.7600       721
 102.7800       762
 102.8000       805
 102.8200       747
 102.8400       770
 102.8600       740
 102.8800       749
 102.9000       756
 102.9200       724
 102.9400       723
 102.9600       718
 102.9800       785
 103.0000       810
 103.0200       789
 103.0400       702
 103.0600       728
 103.0800       739
 103.1000       722
 103.1200       766
 103.1400       786
 103.1600       766
 103.1800       757
 103.2000       756
 103.2200       799
 103.2400       702
 103.2600       774
 103.2800       769
 103.3000       757
 103.3200       794
 103.3400       790
 103.3600       792
 103.3800       741
 103.4000       765
 103.4200       743
 103.4400       772
 103.4600       729
 103.4800       771
 103.5000       786
 103.5200       826
 103.5400       714
 103.5600       766
 103.5800       765
 103.6000       760
 103.6200       787
 103.6400       744
 103.6600       785
 103.6800       748
 103.7000       743
 103.7200       715
 103.7400       804
 103.7600       769
 103.7800       804
 103.8000       744
 103.8200       741
 103.8400       780
 103.8600       782
 103.8800       749
 103.9000       760
 103.9200       770
 103.9400       766
 103.9600       702
 103.9800       790
 104.0000       823
 104.0200       808
 104.0400       774
 104.0600       748
 104.0800       726
 104.1000       762
 104.1200       754
 104.1400       744
 104.1600       770
 104.1800       753
 104.2000       721
 104.2200       771
 104.2400       738
 104.2600       767
 104.2800       794
 104.3000       808
 104.3200       748
 104.3400       748
 104.3600       785
 104.3800       784
 104.4000       737
 104.4200       772
 104.4400       806
 104.4600       764
 104.4800       727
 104.5000       752
 104.5200       747
 104.5400       751
 104.5600       803
 104.5800       728
 104.6000       772
 104.6200       731
 104.6400       750
 104.6600       734
 104.6800       767
 104.7000       790
 104.7200       750
 104.7400       730
 104.7600       775
 104.7800       747
 104.8000       757
 104.8200       769
 104.8400       734
 104.8600       782
 104.8800       777
 104.9000       749
 104.9200       774
 104.9400       768
 104.9600       760
 104.9800       717
 105.0000       749
